Model,DPO2024
Firmware Version,1.52

Point Format,Y
Horizontal Units,Hz
Horizontal Scale,2604
Sample Interval,5.208
Filter Frequency,2e+08
Record Length,5000
Gating,0.0% to 100.0%
Probe Attenuation,1
Vertical Units,NONE
Vertical Offset,0
Vertical Scale,20
Label,
TIME,MATH
0.0000e+00,-38.4156
5.2080e+00,-39.4813
1.0416e+01,-40.5438
1.5624e+01,-54.7875
2.0832e+01,-69.0312
2.6040e+01,-65.8906
3.1248e+01,-62.7469
3.6456e+01,-63.9
4.1664e+01,-65.05
4.6872e+01,-65.2812
5.2080e+01,-65.5094
5.7288e+01,-64.7969
6.2496e+01,-64.0812
6.7704e+01,-66.5563
7.2912e+01,-69.0312
7.8120e+01,-66.5563
8.3328e+01,-64.0812
8.8536e+01,-65.5031
9.3744e+01,-66.9219
9.8952e+01,-67.9781
1.0416e+02,-69.0312
1.0937e+02,-67.0406
1.1458e+02,-65.05
1.1978e+02,-67.0406
1.2499e+02,-69.0312
1.3020e+02,-66.5563
1.3541e+02,-64.0812
1.4062e+02,-66.0719
1.4582e+02,-68.0594
1.5103e+02,-66.7844
1.5624e+02,-65.5094
1.6145e+02,-66.7844
1.6666e+02,-68.0594
1.7186e+02,-67.4906
1.7707e+02,-66.9219
1.8228e+02,-66.9219
1.8749e+02,-66.9219
1.9270e+02,-67.9781
1.9790e+02,-69.0312
2.0311e+02,-67.0406
2.0832e+02,-65.05
2.1353e+02,-67.0406
2.1874e+02,-69.0312
2.2394e+02,-67.9781
2.2915e+02,-66.9219
2.3436e+02,-67.4906
2.3957e+02,-68.0594
2.4478e+02,-67.4906
2.4998e+02,-66.9219
2.5519e+02,-66.9219
2.6040e+02,-66.9219
2.6561e+02,-66.9219
2.7082e+02,-66.9219
2.7602e+02,-70.9875
2.8123e+02,-75.05
2.8644e+02,-72.0406
2.9165e+02,-69.0312
2.9686e+02,-67.0406
3.0206e+02,-65.05
3.0727e+02,-68.0625
3.1248e+02,-71.0719
3.1769e+02,-68.2906
3.2290e+02,-65.5094
3.2810e+02,-66.2156
3.3331e+02,-66.9219
3.3852e+02,-67.4906
3.4373e+02,-68.0594
3.4894e+02,-67.4906
3.5414e+02,-66.9219
3.5935e+02,-67.9781
3.6456e+02,-69.0312
3.6977e+02,-67.9781
3.7498e+02,-66.9219
3.8018e+02,-67.9781
3.8539e+02,-69.0312
3.9060e+02,-68.5469
3.9581e+02,-68.0594
4.0102e+02,-66.0719
4.0622e+02,-64.0812
4.1143e+02,-63.5469
4.1664e+02,-63.0094
4.2185e+02,-58.2313
4.2706e+02,-53.4531
4.3226e+02,-57.2625
4.3747e+02,-61.0719
4.4268e+02,-64.7969
4.4789e+02,-68.5187
4.5310e+02,-65.45
4.5830e+02,-62.3781
4.6351e+02,-64.0687
4.6872e+02,-65.7562
4.7393e+02,-67.3937
4.7914e+02,-69.0312
4.8434e+02,-68.5469
4.8955e+02,-68.0594
4.9476e+02,-68.5469
4.9997e+02,-69.0312
5.0518e+02,-67.9781
5.1038e+02,-66.9219
5.1559e+02,-68.9969
5.2080e+02,-71.0719
5.2601e+02,-68.9969
5.3122e+02,-66.9219
5.3642e+02,-66.4719
5.4163e+02,-66.0187
5.4684e+02,-65.5344
5.5205e+02,-65.05
5.5726e+02,-70.05
5.6246e+02,-75.05
5.6767e+02,-70.2812
5.7288e+02,-65.5094
5.7809e+02,-67.2719
5.8330e+02,-69.0312
5.8850e+02,-67.3937
5.9371e+02,-65.7562
5.9892e+02,-66.9094
6.0413e+02,-68.0594
6.0934e+02,-69.5656
6.1454e+02,-71.0719
6.1975e+02,-68.9969
6.2496e+02,-66.9219
6.3017e+02,-68.9969
6.3538e+02,-71.0719
6.4058e+02,-68.2906
6.4579e+02,-65.5094
6.5100e+02,-68.2906
6.5621e+02,-71.0719
6.6142e+02,-68.4156
6.6662e+02,-65.7562
6.7183e+02,-66.9094
6.7704e+02,-68.0594
6.8225e+02,-68.5469
6.8746e+02,-69.0312
6.9266e+02,-70.0531
6.9787e+02,-71.0719
7.0308e+02,-71.0719
7.0829e+02,-71.0719
7.1350e+02,-70.0531
7.1870e+02,-69.0312
7.2391e+02,-69.0312
7.2912e+02,-69.0312
7.3433e+02,-70.0531
7.3954e+02,-71.0719
7.4474e+02,-71.0719
7.4995e+02,-71.0719
7.5516e+02,-68.9969
7.6037e+02,-66.9219
7.6558e+02,-70.9875
7.7078e+02,-75.05
7.7599e+02,-71.5563
7.8120e+02,-68.0594
7.8641e+02,-70.05
7.9162e+02,-72.0406
7.9682e+02,-70.05
8.0203e+02,-68.0594
8.0724e+02,-68.5469
8.1245e+02,-69.0312
8.1766e+02,-72.0406
8.2286e+02,-75.05
8.2807e+02,-73.0625
8.3328e+02,-71.0719
8.3849e+02,-70.0531
8.4370e+02,-69.0312
8.4890e+02,-70.0531
8.5411e+02,-71.0719
8.5932e+02,-71.0719
8.6453e+02,-71.0719
8.6974e+02,-71.0719
8.7494e+02,-71.0719
8.8015e+02,-71.0719
8.8536e+02,-71.0719
8.9057e+02,-73.0625
8.9578e+02,-75.05
9.0098e+02,-73.0625
9.0619e+02,-71.0719
9.1140e+02,-70.0531
9.1661e+02,-69.0312
9.2182e+02,-70.0531
9.2702e+02,-71.0719
9.3223e+02,-71.0719
9.3744e+02,-71.0719
9.4265e+02,-71.5563
9.4786e+02,-72.0406
9.5306e+02,-69.4813
9.5827e+02,-66.9219
9.6348e+02,-70.9875
9.6869e+02,-75.05
9.7390e+02,-75.05
9.7910e+02,-75.05
9.8431e+02,-72.0406
9.8952e+02,-69.0312
9.9473e+02,-70.0531
9.9994e+02,-71.0719
1.0051e+03,-71.0719
1.0104e+03,-71.0719
1.0156e+03,-71.0719
1.0208e+03,-71.0719
1.0260e+03,-71.0719
1.0312e+03,-71.0719
1.0364e+03,-73.0625
1.0416e+03,-75.05
1.0468e+03,-72.0406
1.0520e+03,-69.0312
1.0572e+03,-72.0406
1.0624e+03,-75.05
1.0676e+03,-71.5563
1.0728e+03,-68.0594
1.0781e+03,-69.5656
1.0833e+03,-71.0719
1.0885e+03,-71.0719
1.0937e+03,-71.0719
1.0989e+03,-69.5656
1.1041e+03,-68.0594
1.1093e+03,-71.5563
1.1145e+03,-75.05
1.1197e+03,-75.05
1.1249e+03,-75.05
1.1301e+03,-70.9875
1.1353e+03,-66.9219
1.1406e+03,-67.7219
1.1458e+03,-68.5187
1.1510e+03,-69.7969
1.1562e+03,-71.0719
1.1614e+03,-71.5563
1.1666e+03,-72.0406
1.1718e+03,-70.5375
1.1770e+03,-69.0312
1.1822e+03,-69.0312
1.1874e+03,-69.0312
1.1926e+03,-70.0531
1.1978e+03,-71.0719
1.2030e+03,-71.0719
1.2083e+03,-71.0719
1.2135e+03,-71.0719
1.2187e+03,-71.0719
1.2239e+03,-68.9969
1.2291e+03,-66.9219
1.2343e+03,-68.9969
1.2395e+03,-71.0719
1.2447e+03,-71.0719
1.2499e+03,-71.0719
1.2551e+03,-71.0719
1.2603e+03,-71.0719
1.2655e+03,-69.5656
1.2708e+03,-68.0594
1.2760e+03,-69.5656
1.2812e+03,-71.0719
1.2864e+03,-71.0719
1.2916e+03,-71.0719
1.2968e+03,-73.0625
1.3020e+03,-75.05
1.3072e+03,-72.0406
1.3124e+03,-69.0312
1.3176e+03,-69.0312
1.3228e+03,-69.0312
1.3280e+03,-70.0531
1.3332e+03,-71.0719
1.3385e+03,-68.0625
1.3437e+03,-65.05
1.3489e+03,-70.05
1.3541e+03,-75.05
1.3593e+03,-72.0406
1.3645e+03,-69.0312
1.3697e+03,-72.0406
1.3749e+03,-75.05
1.3801e+03,-70.9875
1.3853e+03,-66.9219
1.3905e+03,-68.9969
1.3957e+03,-71.0719
1.4010e+03,-68.9969
1.4062e+03,-66.9219
1.4114e+03,-67.4906
1.4166e+03,-68.0594
1.4218e+03,-68.0594
1.4270e+03,-68.0594
1.4322e+03,-69.5656
1.4374e+03,-71.0719
1.4426e+03,-71.0719
1.4478e+03,-71.0719
1.4530e+03,-69.5656
1.4582e+03,-68.0594
1.4634e+03,-71.5563
1.4687e+03,-75.05
1.4739e+03,-70.9875
1.4791e+03,-66.9219
1.4843e+03,-68.9969
1.4895e+03,-71.0719
1.4947e+03,-70.0531
1.4999e+03,-69.0312
1.5051e+03,-69.0312
1.5103e+03,-69.0312
1.5155e+03,-70.0531
1.5207e+03,-71.0719
1.5259e+03,-70.0531
1.5312e+03,-69.0312
1.5364e+03,-69.0312
1.5416e+03,-69.0312
1.5468e+03,-70.0531
1.5520e+03,-71.0719
1.5572e+03,-68.9969
1.5624e+03,-66.9219
1.5676e+03,-67.4906
1.5728e+03,-68.0594
1.5780e+03,-68.0594
1.5832e+03,-68.0594
1.5884e+03,-68.5469
1.5936e+03,-69.0312
1.5989e+03,-72.0406
1.6041e+03,-75.05
1.6093e+03,-70.05
1.6145e+03,-65.05
1.6197e+03,-68.0625
1.6249e+03,-71.0719
1.6301e+03,-73.0625
1.6353e+03,-75.05
1.6405e+03,-72.0406
1.6457e+03,-69.0312
1.6509e+03,-70.0531
1.6561e+03,-71.0719
1.6614e+03,-70.0531
1.6666e+03,-69.0312
1.6718e+03,-70.0531
1.6770e+03,-71.0719
1.6822e+03,-68.2906
1.6874e+03,-65.5094
1.6926e+03,-68.2906
1.6978e+03,-71.0719
1.7030e+03,-68.2906
1.7082e+03,-65.5094
1.7134e+03,-68.2906
1.7186e+03,-71.0719
1.7238e+03,-71.0719
1.7291e+03,-71.0719
1.7343e+03,-68.2906
1.7395e+03,-65.5094
1.7447e+03,-70.2812
1.7499e+03,-75.05
1.7551e+03,-70.9875
1.7603e+03,-66.9219
1.7655e+03,-69.4813
1.7707e+03,-72.0406
1.7759e+03,-71.5563
1.7811e+03,-71.0719
1.7863e+03,-68.9969
1.7916e+03,-66.9219
1.7968e+03,-66.9219
1.8020e+03,-66.9219
1.8072e+03,-67.4906
1.8124e+03,-68.0594
1.8176e+03,-69.5656
1.8228e+03,-71.0719
1.8280e+03,-69.5656
1.8332e+03,-68.0594
1.8384e+03,-68.0594
1.8436e+03,-68.0594
1.8488e+03,-70.05
1.8540e+03,-72.0406
1.8593e+03,-70.05
1.8645e+03,-68.0594
1.8697e+03,-68.5469
1.8749e+03,-69.0312
1.8801e+03,-69.0312
1.8853e+03,-69.0312
1.8905e+03,-72.0406
1.8957e+03,-75.05
1.9009e+03,-72.0406
1.9061e+03,-69.0312
1.9113e+03,-69.0312
1.9165e+03,-69.0312
1.9218e+03,-70.0531
1.9270e+03,-71.0719
1.9322e+03,-69.5656
1.9374e+03,-68.0594
1.9426e+03,-68.5469
1.9478e+03,-69.0312
1.9530e+03,-68.5469
1.9582e+03,-68.0594
1.9634e+03,-68.0594
1.9686e+03,-68.0594
1.9738e+03,-68.0594
1.9790e+03,-68.0594
1.9842e+03,-71.5563
1.9895e+03,-75.05
1.9947e+03,-70.2812
1.9999e+03,-65.5094
2.0051e+03,-68.2906
2.0103e+03,-71.0719
2.0155e+03,-71.0719
2.0207e+03,-71.0719
2.0259e+03,-68.9969
2.0311e+03,-66.9219
2.0363e+03,-67.9781
2.0415e+03,-69.0312
2.0467e+03,-72.0406
2.0520e+03,-75.05
2.0572e+03,-72.0406
2.0624e+03,-69.0312
2.0676e+03,-67.9781
2.0728e+03,-66.9219
2.0780e+03,-70.9875
2.0832e+03,-75.05
2.0884e+03,-72.0406
2.0936e+03,-69.0312
2.0988e+03,-69.0312
2.1040e+03,-69.0312
2.1092e+03,-69.0312
2.1144e+03,-69.0312
2.1197e+03,-70.5375
2.1249e+03,-72.0406
2.1301e+03,-68.775
2.1353e+03,-65.5094
2.1405e+03,-68.2906
2.1457e+03,-71.0719
2.1509e+03,-70.0531
2.1561e+03,-69.0312
2.1613e+03,-72.0406
2.1665e+03,-75.05
2.1717e+03,-71.5563
2.1769e+03,-68.0594
2.1822e+03,-68.2906
2.1874e+03,-68.5187
2.1926e+03,-71.7844
2.1978e+03,-75.05
2.2030e+03,-70.4031
2.2082e+03,-65.7562
2.2134e+03,-68.9
2.2186e+03,-72.0406
2.2238e+03,-71.5563
2.2290e+03,-71.0719
2.2342e+03,-70.0531
2.2394e+03,-69.0312
2.2446e+03,-70.0531
2.2499e+03,-71.0719
2.2551e+03,-71.0719
2.2603e+03,-71.0719
2.2655e+03,-71.5563
2.2707e+03,-72.0406
2.2759e+03,-69.4813
2.2811e+03,-66.9219
2.2863e+03,-70.9875
2.2915e+03,-75.05
2.2967e+03,-73.0625
2.3019e+03,-71.0719
2.3071e+03,-69.5656
2.3124e+03,-68.0594
2.3176e+03,-71.5563
2.3228e+03,-75.05
2.3280e+03,-71.5563
2.3332e+03,-68.0594
2.3384e+03,-67.4906
2.3436e+03,-66.9219
2.3488e+03,-72.4906
2.3540e+03,-78.0594
2.3592e+03,-73.5469
2.3644e+03,-69.0312
2.3696e+03,-69.0312
2.3748e+03,-69.0312
2.3801e+03,-69.0312
2.3853e+03,-69.0312
2.3905e+03,-69.0312
2.3957e+03,-69.0312
2.4009e+03,-72.0406
2.4061e+03,-75.05
2.4113e+03,-72.0406
2.4165e+03,-69.0312
2.4217e+03,-67.9781
2.4269e+03,-66.9219
2.4321e+03,-68.9969
2.4373e+03,-71.0719
2.4426e+03,-73.0625
2.4478e+03,-75.05
2.4530e+03,-75.05
2.4582e+03,-75.05
2.4634e+03,-70.2812
2.4686e+03,-65.5094
2.4738e+03,-70.2812
2.4790e+03,-75.05
2.4842e+03,-72.0406
2.4894e+03,-69.0312
2.4946e+03,-73.5469
2.4998e+03,-78.0594
2.5050e+03,-71.7844
2.5103e+03,-65.5094
2.5155e+03,-70.2812
2.5207e+03,-75.05
2.5259e+03,-73.0625
2.5311e+03,-71.0719
2.5363e+03,-73.0625
2.5415e+03,-75.05
2.5467e+03,-71.5563
2.5519e+03,-68.0594
2.5571e+03,-68.2906
2.5623e+03,-68.5187
2.5675e+03,-69.7969
2.5728e+03,-71.0719
2.5780e+03,-73.0625
2.5832e+03,-75.05
2.5884e+03,-70.9875
2.5936e+03,-66.9219
2.5988e+03,-72.4906
2.6040e+03,-78.0594
2.6092e+03,-72.4906
2.6144e+03,-66.9219
2.6196e+03,-72.4906
2.6248e+03,-78.0594
2.6300e+03,-76.5563
2.6352e+03,-75.05
2.6405e+03,-72.0406
2.6457e+03,-69.0312
2.6509e+03,-70.0531
2.6561e+03,-71.0719
2.6613e+03,-71.0719
2.6665e+03,-71.0719
2.6717e+03,-70.0531
2.6769e+03,-69.0312
2.6821e+03,-69.0312
2.6873e+03,-69.0312
2.6925e+03,-69.0312
2.6977e+03,-69.0312
2.7030e+03,-68.5469
2.7082e+03,-68.0594
2.7134e+03,-73.0594
2.7186e+03,-78.0594
2.7238e+03,-73.5469
2.7290e+03,-69.0312
2.7342e+03,-69.0312
2.7394e+03,-69.0312
2.7446e+03,-72.0406
2.7498e+03,-75.05
2.7550e+03,-72.0406
2.7602e+03,-69.0312
2.7654e+03,-67.9781
2.7707e+03,-66.9219
2.7759e+03,-70.9875
2.7811e+03,-75.05
2.7863e+03,-72.0406
2.7915e+03,-69.0312
2.7967e+03,-70.0531
2.8019e+03,-71.0719
2.8071e+03,-71.0719
2.8123e+03,-71.0719
2.8175e+03,-70.0531
2.8227e+03,-69.0312
2.8279e+03,-67.9781
2.8332e+03,-66.9219
2.8384e+03,-72.4906
2.8436e+03,-78.0594
2.8488e+03,-73.5469
2.8540e+03,-69.0312
2.8592e+03,-70.0531
2.8644e+03,-71.0719
2.8696e+03,-71.0719
2.8748e+03,-71.0719
2.8800e+03,-73.0625
2.8852e+03,-75.05
2.8904e+03,-70.9875
2.8956e+03,-66.9219
2.9009e+03,-68.9969
2.9061e+03,-71.0719
2.9113e+03,-71.0719
2.9165e+03,-71.0719
2.9217e+03,-71.0719
2.9269e+03,-71.0719
2.9321e+03,-70.0531
2.9373e+03,-69.0312
2.9425e+03,-72.0406
2.9477e+03,-75.05
2.9529e+03,-73.0625
2.9581e+03,-71.0719
2.9634e+03,-73.0625
2.9686e+03,-75.05
2.9738e+03,-70.9875
2.9790e+03,-66.9219
2.9842e+03,-72.4906
2.9894e+03,-78.0594
2.9946e+03,-72.4906
2.9998e+03,-66.9219
3.0050e+03,-68.9969
3.0102e+03,-71.0719
3.0154e+03,-70.0531
3.0206e+03,-69.0312
3.0258e+03,-70.0531
3.0311e+03,-71.0719
3.0363e+03,-70.0531
3.0415e+03,-69.0312
3.0467e+03,-73.5469
3.0519e+03,-78.0594
3.0571e+03,-72.4906
3.0623e+03,-66.9219
3.0675e+03,-68.9969
3.0727e+03,-71.0719
3.0779e+03,-74.5656
3.0831e+03,-78.0594
3.0883e+03,-71.7844
3.0936e+03,-65.5094
3.0988e+03,-68.775
3.1040e+03,-72.0406
3.1092e+03,-71.5563
3.1144e+03,-71.0719
3.1196e+03,-73.0625
3.1248e+03,-75.05
3.1300e+03,-73.0625
3.1352e+03,-71.0719
3.1404e+03,-70.0531
3.1456e+03,-69.0312
3.1508e+03,-72.0406
3.1560e+03,-75.05
3.1613e+03,-71.5563
3.1665e+03,-68.0594
3.1717e+03,-73.0594
3.1769e+03,-78.0594
3.1821e+03,-74.5656
3.1873e+03,-71.0719
3.1925e+03,-69.5656
3.1977e+03,-68.0594
3.2029e+03,-68.2906
3.2081e+03,-68.5187
3.2133e+03,-68.2906
3.2185e+03,-68.0594
3.2238e+03,-71.5563
3.2290e+03,-75.05
3.2342e+03,-72.0406
3.2394e+03,-69.0312
3.2446e+03,-72.0406
3.2498e+03,-75.05
3.2550e+03,-73.0625
3.2602e+03,-71.0719
3.2654e+03,-70.0531
3.2706e+03,-69.0312
3.2758e+03,-70.0531
3.2810e+03,-71.0719
3.2862e+03,-73.0625
3.2915e+03,-75.05
3.2967e+03,-70.4031
3.3019e+03,-65.7562
3.3071e+03,-71.9094
3.3123e+03,-78.0594
3.3175e+03,-73.5469
3.3227e+03,-69.0312
3.3279e+03,-72.0406
3.3331e+03,-75.05
3.3383e+03,-73.0625
3.3435e+03,-71.0719
3.3487e+03,-73.0625
3.3540e+03,-75.05
3.3592e+03,-73.5469
3.3644e+03,-72.0406
3.3696e+03,-71.5563
3.3748e+03,-71.0719
3.3800e+03,-70.0531
3.3852e+03,-69.0312
3.3904e+03,-70.5375
3.3956e+03,-72.0406
3.4008e+03,-71.5563
3.4060e+03,-71.0719
3.4112e+03,-68.9969
3.4164e+03,-66.9219
3.4217e+03,-72.4906
3.4269e+03,-78.0594
3.4321e+03,-74.5656
3.4373e+03,-71.0719
3.4425e+03,-71.0719
3.4477e+03,-71.0719
3.4529e+03,-69.5656
3.4581e+03,-68.0594
3.4633e+03,-71.5563
3.4685e+03,-75.05
3.4737e+03,-71.5563
3.4789e+03,-68.0594
3.4842e+03,-68.5469
3.4894e+03,-69.0312
3.4946e+03,-70.5375
3.4998e+03,-72.0406
3.5050e+03,-70.5375
3.5102e+03,-69.0312
3.5154e+03,-70.0531
3.5206e+03,-71.0719
3.5258e+03,-71.0719
3.5310e+03,-71.0719
3.5362e+03,-70.0531
3.5414e+03,-69.0312
3.5466e+03,-70.0531
3.5519e+03,-71.0719
3.5571e+03,-69.7969
3.5623e+03,-68.5187
3.5675e+03,-66.7844
3.5727e+03,-65.05
3.5779e+03,-70.05
3.5831e+03,-75.05
3.5883e+03,-73.0625
3.5935e+03,-71.0719
3.5987e+03,-69.5656
3.6039e+03,-68.0594
3.6091e+03,-68.2906
3.6144e+03,-68.5187
3.6196e+03,-69.7969
3.6248e+03,-71.0719
3.6300e+03,-69.5656
3.6352e+03,-68.0594
3.6404e+03,-73.0594
3.6456e+03,-78.0594
3.6508e+03,-73.5469
3.6560e+03,-69.0312
3.6612e+03,-72.0406
3.6664e+03,-75.05
3.6716e+03,-71.7844
3.6768e+03,-68.5187
3.6821e+03,-71.7844
3.6873e+03,-75.05
3.6925e+03,-75.05
3.6977e+03,-75.05
3.7029e+03,-71.5563
3.7081e+03,-68.0594
3.7133e+03,-73.0594
3.7185e+03,-78.0594
3.7237e+03,-72.4906
3.7289e+03,-66.9219
3.7341e+03,-69.4813
3.7393e+03,-72.0406
3.7446e+03,-73.5469
3.7498e+03,-75.05
3.7550e+03,-70.9875
3.7602e+03,-66.9219
3.7654e+03,-68.9969
3.7706e+03,-71.0719
3.7758e+03,-71.5563
3.7810e+03,-72.0406
3.7862e+03,-72.0406
3.7914e+03,-72.0406
3.7966e+03,-71.5563
3.8018e+03,-71.0719
3.8070e+03,-71.0719
3.8123e+03,-71.0719
3.8175e+03,-73.0625
3.8227e+03,-75.05
3.8279e+03,-73.0625
3.8331e+03,-71.0719
3.8383e+03,-71.5563
3.8435e+03,-72.0406
3.8487e+03,-71.5563
3.8539e+03,-71.0719
3.8591e+03,-73.0625
3.8643e+03,-75.05
3.8695e+03,-73.5469
3.8748e+03,-72.0406
3.8800e+03,-71.5563
3.8852e+03,-71.0719
3.8904e+03,-69.5656
3.8956e+03,-68.0594
3.9008e+03,-71.5563
3.9060e+03,-75.05
3.9112e+03,-75.05
3.9164e+03,-75.05
3.9216e+03,-75.05
3.9268e+03,-75.05
3.9320e+03,-75.05
3.9372e+03,-75.05
3.9425e+03,-73.0625
3.9477e+03,-71.0719
3.9529e+03,-74.5656
3.9581e+03,-78.0594
3.9633e+03,-73.0594
3.9685e+03,-68.0594
3.9737e+03,-73.0594
3.9789e+03,-78.0594
3.9841e+03,-73.0594
3.9893e+03,-68.0594
3.9945e+03,-73.0594
3.9997e+03,-78.0594
4.0050e+03,-74.5656
4.0102e+03,-71.0719
4.0154e+03,-71.0719
4.0206e+03,-71.0719
4.0258e+03,-74.5656
4.0310e+03,-78.0594
4.0362e+03,-71.7844
4.0414e+03,-65.5094
4.0466e+03,-70.2812
4.0518e+03,-75.05
4.0570e+03,-72.0406
4.0622e+03,-69.0312
4.0674e+03,-73.5469
4.0727e+03,-78.0594
4.0779e+03,-72.4906
4.0831e+03,-66.9219
4.0883e+03,-72.4906
4.0935e+03,-78.0594
4.0987e+03,-76.5563
4.1039e+03,-75.05
4.1091e+03,-72.0406
4.1143e+03,-69.0312
4.1195e+03,-70.0531
4.1247e+03,-71.0719
4.1299e+03,-71.0719
4.1352e+03,-71.0719
4.1404e+03,-70.0531
4.1456e+03,-69.0312
4.1508e+03,-67.9781
4.1560e+03,-66.9219
4.1612e+03,-70.9875
4.1664e+03,-75.05
4.1716e+03,-70.05
4.1768e+03,-65.05
4.1820e+03,-68.0625
4.1872e+03,-71.0719
4.1924e+03,-71.5563
4.1976e+03,-72.0406
4.2029e+03,-73.5469
4.2081e+03,-75.05
4.2133e+03,-70.05
4.2185e+03,-65.05
4.2237e+03,-71.5563
4.2289e+03,-78.0594
4.2341e+03,-72.4906
4.2393e+03,-66.9219
4.2445e+03,-70.9875
4.2497e+03,-75.05
4.2549e+03,-71.5563
4.2601e+03,-68.0594
4.2654e+03,-73.0594
4.2706e+03,-78.0594
4.2758e+03,-74.5656
4.2810e+03,-71.0719
4.2862e+03,-71.0719
4.2914e+03,-71.0719
4.2966e+03,-71.0719
4.3018e+03,-71.0719
4.3070e+03,-71.0719
4.3122e+03,-71.0719
4.3174e+03,-71.0719
4.3226e+03,-71.0719
4.3278e+03,-71.0719
4.3331e+03,-71.0719
4.3383e+03,-71.0719
4.3435e+03,-71.0719
4.3487e+03,-71.0719
4.3539e+03,-71.0719
4.3591e+03,-71.5563
4.3643e+03,-72.0406
4.3695e+03,-71.5563
4.3747e+03,-71.0719
4.3799e+03,-73.0625
4.3851e+03,-75.05
4.3903e+03,-73.0625
4.3956e+03,-71.0719
4.4008e+03,-71.5563
4.4060e+03,-72.0406
4.4112e+03,-71.5563
4.4164e+03,-71.0719
4.4216e+03,-71.5563
4.4268e+03,-72.0406
4.4320e+03,-72.0406
4.4372e+03,-72.0406
4.4424e+03,-73.5469
4.4476e+03,-75.05
4.4528e+03,-75.05
4.4580e+03,-75.05
4.4633e+03,-73.0625
4.4685e+03,-71.0719
4.4737e+03,-74.5656
4.4789e+03,-78.0594
4.4841e+03,-74.5656
4.4893e+03,-71.0719
4.4945e+03,-71.0719
4.4997e+03,-71.0719
4.5049e+03,-73.0625
4.5101e+03,-75.05
4.5153e+03,-73.0625
4.5205e+03,-71.0719
4.5258e+03,-73.0625
4.5310e+03,-75.05
4.5362e+03,-73.5469
4.5414e+03,-72.0406
4.5466e+03,-73.5469
4.5518e+03,-75.05
4.5570e+03,-75.05
4.5622e+03,-75.05
4.5674e+03,-73.5469
4.5726e+03,-72.0406
4.5778e+03,-73.5469
4.5830e+03,-75.05
4.5882e+03,-73.0625
4.5935e+03,-71.0719
4.5987e+03,-74.5656
4.6039e+03,-78.0594
4.6091e+03,-75.05
4.6143e+03,-72.0406
4.6195e+03,-73.5469
4.6247e+03,-75.05
4.6299e+03,-75.05
4.6351e+03,-75.05
4.6403e+03,-73.0625
4.6455e+03,-71.0719
4.6507e+03,-73.0625
4.6560e+03,-75.05
4.6612e+03,-71.7844
4.6664e+03,-68.5187
4.6716e+03,-71.7844
4.6768e+03,-75.05
4.6820e+03,-73.0625
4.6872e+03,-71.0719
4.6924e+03,-71.5563
4.6976e+03,-72.0406
4.7028e+03,-71.5563
4.7080e+03,-71.0719
4.7132e+03,-71.0719
4.7184e+03,-71.0719
4.7237e+03,-71.5563
4.7289e+03,-72.0406
4.7341e+03,-73.5469
4.7393e+03,-75.05
4.7445e+03,-73.0625
4.7497e+03,-71.0719
4.7549e+03,-74.5656
4.7601e+03,-78.0594
4.7653e+03,-74.5656
4.7705e+03,-71.0719
4.7757e+03,-71.0719
4.7809e+03,-71.0719
4.7862e+03,-73.0625
4.7914e+03,-75.05
4.7966e+03,-76.5563
4.8018e+03,-78.0594
4.8070e+03,-72.4906
4.8122e+03,-66.9219
4.8174e+03,-72.4906
4.8226e+03,-78.0594
4.8278e+03,-74.5656
4.8330e+03,-71.0719
4.8382e+03,-69.7969
4.8434e+03,-68.5187
4.8486e+03,-73.2906
4.8539e+03,-78.0594
4.8591e+03,-74.5656
4.8643e+03,-71.0719
4.8695e+03,-74.5656
4.8747e+03,-78.0594
4.8799e+03,-76.5563
4.8851e+03,-75.05
4.8903e+03,-75.05
4.8955e+03,-75.05
4.9007e+03,-73.0625
4.9059e+03,-71.0719
4.9111e+03,-73.0625
4.9164e+03,-75.05
4.9216e+03,-75.05
4.9268e+03,-75.05
4.9320e+03,-75.05
4.9372e+03,-75.05
4.9424e+03,-76.5563
4.9476e+03,-78.0594
4.9528e+03,-78.0594
4.9580e+03,-78.0594
4.9632e+03,-72.4906
4.9684e+03,-66.9219
4.9736e+03,-72.4906
4.9788e+03,-78.0594
4.9841e+03,-78.0594
4.9893e+03,-78.0594
4.9945e+03,-73.5469
4.9997e+03,-69.0312
5.0049e+03,-72.0406
5.0101e+03,-75.05
5.0153e+03,-75.05
5.0205e+03,-75.05
5.0257e+03,-71.5563
5.0309e+03,-68.0594
5.0361e+03,-68.2906
5.0413e+03,-68.5187
5.0466e+03,-71.7844
5.0518e+03,-75.05
5.0570e+03,-73.0625
5.0622e+03,-71.0719
5.0674e+03,-71.5563
5.0726e+03,-72.0406
5.0778e+03,-75.05
5.0830e+03,-78.0594
5.0882e+03,-74.5656
5.0934e+03,-71.0719
5.0986e+03,-71.0719
5.1038e+03,-71.0719
5.1090e+03,-71.5563
5.1143e+03,-72.0406
5.1195e+03,-72.0406
5.1247e+03,-72.0406
5.1299e+03,-70.5375
5.1351e+03,-69.0312
5.1403e+03,-72.0406
5.1455e+03,-75.05
5.1507e+03,-75.05
5.1559e+03,-75.05
5.1611e+03,-73.0625
5.1663e+03,-71.0719
5.1715e+03,-73.0625
5.1768e+03,-75.05
5.1820e+03,-71.5563
5.1872e+03,-68.0594
5.1924e+03,-71.5563
5.1976e+03,-75.05
5.2028e+03,-75.05
5.2080e+03,-75.05
5.2132e+03,-76.5563
5.2184e+03,-78.0594
5.2236e+03,-78.0594
5.2288e+03,-78.0594
5.2340e+03,-74.5656
5.2392e+03,-71.0719
5.2445e+03,-74.5656
5.2497e+03,-78.0594
5.2549e+03,-76.5563
5.2601e+03,-75.05
5.2653e+03,-73.0625
5.2705e+03,-71.0719
5.2757e+03,-71.5563
5.2809e+03,-72.0406
5.2861e+03,-72.0406
5.2913e+03,-72.0406
5.2965e+03,-71.5563
5.3017e+03,-71.0719
5.3070e+03,-71.0719
5.3122e+03,-71.0719
5.3174e+03,-74.5656
5.3226e+03,-78.0594
5.3278e+03,-74.5656
5.3330e+03,-71.0719
5.3382e+03,-73.0625
5.3434e+03,-75.05
5.3486e+03,-76.5563
5.3538e+03,-78.0594
5.3590e+03,-74.5656
5.3642e+03,-71.0719
5.3694e+03,-74.5656
5.3747e+03,-78.0594
5.3799e+03,-76.5563
5.3851e+03,-75.05
5.3903e+03,-73.5469
5.3955e+03,-72.0406
5.4007e+03,-71.5563
5.4059e+03,-71.0719
5.4111e+03,-73.0625
5.4163e+03,-75.05
5.4215e+03,-73.5469
5.4267e+03,-72.0406
5.4319e+03,-75.05
5.4372e+03,-78.0594
5.4424e+03,-74.5656
5.4476e+03,-71.0719
5.4528e+03,-71.0719
5.4580e+03,-71.0719
5.4632e+03,-74.5656
5.4684e+03,-78.0594
5.4736e+03,-74.5656
5.4788e+03,-71.0719
5.4840e+03,-74.5656
5.4892e+03,-78.0594
5.4944e+03,-74.5656
5.4996e+03,-71.0719
5.5049e+03,-74.5656
5.5101e+03,-78.0594
5.5153e+03,-74.5656
5.5205e+03,-71.0719
5.5257e+03,-71.5563
5.5309e+03,-72.0406
5.5361e+03,-72.0406
5.5413e+03,-72.0406
5.5465e+03,-73.5469
5.5517e+03,-75.05
5.5569e+03,-75.05
5.5621e+03,-75.05
5.5674e+03,-72.0406
5.5726e+03,-69.0312
5.5778e+03,-73.5469
5.5830e+03,-78.0594
5.5882e+03,-76.5563
5.5934e+03,-75.05
5.5986e+03,-72.0406
5.6038e+03,-69.0312
5.6090e+03,-72.0406
5.6142e+03,-75.05
5.6194e+03,-72.0406
5.6246e+03,-69.0312
5.6298e+03,-72.0406
5.6351e+03,-75.05
5.6403e+03,-71.5563
5.6455e+03,-68.0594
5.6507e+03,-71.5563
5.6559e+03,-75.05
5.6611e+03,-75.05
5.6663e+03,-75.05
5.6715e+03,-73.0625
5.6767e+03,-71.0719
5.6819e+03,-73.0625
5.6871e+03,-75.05
5.6923e+03,-73.0625
5.6976e+03,-71.0719
5.7028e+03,-74.5656
5.7080e+03,-78.0594
5.7132e+03,-74.5656
5.7184e+03,-71.0719
5.7236e+03,-71.5563
5.7288e+03,-72.0406
5.7340e+03,-70.2812
5.7392e+03,-68.5187
5.7444e+03,-71.7844
5.7496e+03,-75.05
5.7548e+03,-73.0625
5.7600e+03,-71.0719
5.7653e+03,-73.0625
5.7705e+03,-75.05
5.7757e+03,-75.05
5.7809e+03,-75.05
5.7861e+03,-75.05
5.7913e+03,-75.05
5.7965e+03,-76.5563
5.8017e+03,-78.0594
5.8069e+03,-74.5656
5.8121e+03,-71.0719
5.8173e+03,-71.5563
5.8225e+03,-72.0406
5.8278e+03,-73.5469
5.8330e+03,-75.05
5.8382e+03,-73.0625
5.8434e+03,-71.0719
5.8486e+03,-71.5563
5.8538e+03,-72.0406
5.8590e+03,-70.2812
5.8642e+03,-68.5187
5.8694e+03,-69.7969
5.8746e+03,-71.0719
5.8798e+03,-73.0625
5.8850e+03,-75.05
5.8902e+03,-75.05
5.8955e+03,-75.05
5.9007e+03,-71.5563
5.9059e+03,-68.0594
5.9111e+03,-73.0594
5.9163e+03,-78.0594
5.9215e+03,-74.5656
5.9267e+03,-71.0719
5.9319e+03,-74.5656
5.9371e+03,-78.0594
5.9423e+03,-74.5656
5.9475e+03,-71.0719
5.9527e+03,-70.0531
5.9580e+03,-69.0312
5.9632e+03,-73.5469
5.9684e+03,-78.0594
5.9736e+03,-78.0594
5.9788e+03,-78.0594
5.9840e+03,-73.5469
5.9892e+03,-69.0312
5.9944e+03,-72.0406
5.9996e+03,-75.05
6.0048e+03,-73.0625
6.0100e+03,-71.0719
6.0152e+03,-71.0719
6.0204e+03,-71.0719
6.0257e+03,-73.0625
6.0309e+03,-75.05
6.0361e+03,-75.05
6.0413e+03,-75.05
6.0465e+03,-75.05
6.0517e+03,-75.05
6.0569e+03,-75.05
6.0621e+03,-75.05
6.0673e+03,-73.0625
6.0725e+03,-71.0719
6.0777e+03,-71.5563
6.0829e+03,-72.0406
6.0882e+03,-71.5563
6.0934e+03,-71.0719
6.0986e+03,-73.0625
6.1038e+03,-75.05
6.1090e+03,-73.0625
6.1142e+03,-71.0719
6.1194e+03,-71.0719
6.1246e+03,-71.0719
6.1298e+03,-74.5656
6.1350e+03,-78.0594
6.1402e+03,-76.5563
6.1454e+03,-75.05
6.1506e+03,-75.05
6.1559e+03,-75.05
6.1611e+03,-75.05
6.1663e+03,-75.05
6.1715e+03,-73.0625
6.1767e+03,-71.0719
6.1819e+03,-73.0625
6.1871e+03,-75.05
6.1923e+03,-73.5469
6.1975e+03,-72.0406
6.2027e+03,-73.5469
6.2079e+03,-75.05
6.2131e+03,-75.05
6.2184e+03,-75.05
6.2236e+03,-73.0625
6.2288e+03,-71.0719
6.2340e+03,-73.0625
6.2392e+03,-75.05
6.2444e+03,-75.05
6.2496e+03,-75.05
6.2548e+03,-76.5563
6.2600e+03,-78.0594
6.2652e+03,-73.0594
6.2704e+03,-68.0594
6.2756e+03,-71.5563
6.2808e+03,-75.05
6.2861e+03,-73.0625
6.2913e+03,-71.0719
6.2965e+03,-73.0625
6.3017e+03,-75.05
6.3069e+03,-71.5563
6.3121e+03,-68.0594
6.3173e+03,-71.5563
6.3225e+03,-75.05
6.3277e+03,-73.0625
6.3329e+03,-71.0719
6.3381e+03,-74.5656
6.3433e+03,-78.0594
6.3486e+03,-74.5656
6.3538e+03,-71.0719
6.3590e+03,-71.0719
6.3642e+03,-71.0719
6.3694e+03,-73.0625
6.3746e+03,-75.05
6.3798e+03,-76.5563
6.3850e+03,-78.0594
6.3902e+03,-74.5656
6.3954e+03,-71.0719
6.4006e+03,-73.0625
6.4058e+03,-75.05
6.4110e+03,-75.05
6.4163e+03,-75.05
6.4215e+03,-72.0406
6.4267e+03,-69.0312
6.4319e+03,-72.0406
6.4371e+03,-75.05
6.4423e+03,-73.5469
6.4475e+03,-72.0406
6.4527e+03,-75.05
6.4579e+03,-78.0594
6.4631e+03,-73.5469
6.4683e+03,-69.0312
6.4735e+03,-73.5469
6.4788e+03,-78.0594
6.4840e+03,-73.5469
6.4892e+03,-69.0312
6.4944e+03,-70.0531
6.4996e+03,-71.0719
6.5048e+03,-71.5563
6.5100e+03,-72.0406
6.5152e+03,-73.5469
6.5204e+03,-75.05
6.5256e+03,-76.5563
6.5308e+03,-78.0594
6.5360e+03,-75.05
6.5412e+03,-72.0406
6.5465e+03,-75.05
6.5517e+03,-78.0594
6.5569e+03,-74.5656
6.5621e+03,-71.0719
6.5673e+03,-71.5563
6.5725e+03,-72.0406
6.5777e+03,-75.05
6.5829e+03,-78.0594
6.5881e+03,-78.0594
6.5933e+03,-78.0594
6.5985e+03,-76.5563
6.6037e+03,-75.05
6.6090e+03,-76.5563
6.6142e+03,-78.0594
6.6194e+03,-76.5563
6.6246e+03,-75.05
6.6298e+03,-72.0406
6.6350e+03,-69.0312
6.6402e+03,-73.5469
6.6454e+03,-78.0594
6.6506e+03,-78.0594
6.6558e+03,-78.0594
6.6610e+03,-78.0594
6.6662e+03,-78.0594
6.6714e+03,-76.5563
6.6767e+03,-75.05
6.6819e+03,-76.5563
6.6871e+03,-78.0594
6.6923e+03,-78.0594
6.6975e+03,-78.0594
6.7027e+03,-74.5656
6.7079e+03,-71.0719
6.7131e+03,-74.5656
6.7183e+03,-78.0594
6.7235e+03,-75.05
6.7287e+03,-72.0406
6.7339e+03,-75.05
6.7392e+03,-78.0594
6.7444e+03,-74.5656
6.7496e+03,-71.0719
6.7548e+03,-71.5563
6.7600e+03,-72.0406
6.7652e+03,-75.05
6.7704e+03,-78.0594
6.7756e+03,-78.0594
6.7808e+03,-78.0594
6.7860e+03,-76.5563
6.7912e+03,-75.05
6.7964e+03,-73.0625
6.8016e+03,-71.0719
6.8069e+03,-74.5656
6.8121e+03,-78.0594
6.8173e+03,-78.0594
6.8225e+03,-78.0594
6.8277e+03,-76.5563
6.8329e+03,-75.05
6.8381e+03,-75.05
6.8433e+03,-75.05
6.8485e+03,-73.0625
6.8537e+03,-71.0719
6.8589e+03,-74.5656
6.8641e+03,-78.0594
6.8694e+03,-74.5656
6.8746e+03,-71.0719
6.8798e+03,-71.0719
6.8850e+03,-71.0719
6.8902e+03,-71.5563
6.8954e+03,-72.0406
6.9006e+03,-75.05
6.9058e+03,-78.0594
6.9110e+03,-76.5563
6.9162e+03,-75.05
6.9214e+03,-76.5563
6.9266e+03,-78.0594
6.9318e+03,-74.5656
6.9371e+03,-71.0719
6.9423e+03,-74.5656
6.9475e+03,-78.0594
6.9527e+03,-76.5563
6.9579e+03,-75.05
6.9631e+03,-75.05
6.9683e+03,-75.05
6.9735e+03,-73.0625
6.9787e+03,-71.0719
6.9839e+03,-74.5656
6.9891e+03,-78.0594
6.9943e+03,-78.0594
6.9996e+03,-78.0594
7.0048e+03,-76.5563
7.0100e+03,-75.05
7.0152e+03,-73.0625
7.0204e+03,-71.0719
7.0256e+03,-74.5656
7.0308e+03,-78.0594
7.0360e+03,-78.0594
7.0412e+03,-78.0594
7.0464e+03,-76.5563
7.0516e+03,-75.05
7.0568e+03,-76.5563
7.0620e+03,-78.0594
7.0673e+03,-78.0594
7.0725e+03,-78.0594
7.0777e+03,-75.05
7.0829e+03,-72.0406
7.0881e+03,-72.0406
7.0933e+03,-72.0406
7.0985e+03,-75.05
7.1037e+03,-78.0594
7.1089e+03,-76.5563
7.1141e+03,-75.05
7.1193e+03,-76.5563
7.1245e+03,-78.0594
7.1298e+03,-74.5656
7.1350e+03,-71.0719
7.1402e+03,-74.5656
7.1454e+03,-78.0594
7.1506e+03,-74.5656
7.1558e+03,-71.0719
7.1610e+03,-71.0719
7.1662e+03,-71.0719
7.1714e+03,-74.5656
7.1766e+03,-78.0594
7.1818e+03,-78.0594
7.1870e+03,-78.0594
7.1922e+03,-78.0594
7.1975e+03,-78.0594
7.2027e+03,-78.0594
7.2079e+03,-78.0594
7.2131e+03,-78.0594
7.2183e+03,-78.0594
7.2235e+03,-78.0594
7.2287e+03,-78.0594
7.2339e+03,-78.0594
7.2391e+03,-78.0594
7.2443e+03,-74.5656
7.2495e+03,-71.0719
7.2547e+03,-74.5656
7.2600e+03,-78.0594
7.2652e+03,-78.0594
7.2704e+03,-78.0594
7.2756e+03,-78.0594
7.2808e+03,-78.0594
7.2860e+03,-75.05
7.2912e+03,-72.0406
7.2964e+03,-73.5469
7.3016e+03,-75.05
7.3068e+03,-75.05
7.3120e+03,-75.05
7.3172e+03,-75.05
7.3224e+03,-75.05
7.3277e+03,-73.5469
7.3329e+03,-72.0406
7.3381e+03,-72.0406
7.3433e+03,-72.0406
7.3485e+03,-72.0406
7.3537e+03,-72.0406
7.3589e+03,-75.05
7.3641e+03,-78.0594
7.3693e+03,-76.5563
7.3745e+03,-75.05
7.3797e+03,-75.05
7.3849e+03,-75.05
7.3902e+03,-75.05
7.3954e+03,-75.05
7.4006e+03,-75.05
7.4058e+03,-75.05
7.4110e+03,-76.5563
7.4162e+03,-78.0594
7.4214e+03,-76.5563
7.4266e+03,-75.05
7.4318e+03,-75.05
7.4370e+03,-75.05
7.4422e+03,-71.7844
7.4474e+03,-68.5187
7.4526e+03,-73.2906
7.4579e+03,-78.0594
7.4631e+03,-76.5563
7.4683e+03,-75.05
7.4735e+03,-75.05
7.4787e+03,-75.05
7.4839e+03,-73.5469
7.4891e+03,-72.0406
7.4943e+03,-75.05
7.4995e+03,-78.0594
7.5047e+03,-75.05
7.5099e+03,-72.0406
7.5151e+03,-75.05
7.5204e+03,-78.0594
7.5256e+03,-78.0594
7.5308e+03,-78.0594
7.5360e+03,-75.05
7.5412e+03,-72.0406
7.5464e+03,-75.05
7.5516e+03,-78.0594
7.5568e+03,-78.0594
7.5620e+03,-78.0594
7.5672e+03,-76.5563
7.5724e+03,-75.05
7.5776e+03,-76.5563
7.5828e+03,-78.0594
7.5881e+03,-76.5563
7.5933e+03,-75.05
7.5985e+03,-73.5469
7.6037e+03,-72.0406
7.6089e+03,-72.0406
7.6141e+03,-72.0406
7.6193e+03,-75.05
7.6245e+03,-78.0594
7.6297e+03,-76.5563
7.6349e+03,-75.05
7.6401e+03,-76.5563
7.6453e+03,-78.0594
7.6506e+03,-74.5656
7.6558e+03,-71.0719
7.6610e+03,-74.5656
7.6662e+03,-78.0594
7.6714e+03,-78.0594
7.6766e+03,-78.0594
7.6818e+03,-78.0594
7.6870e+03,-78.0594
7.6922e+03,-74.5656
7.6974e+03,-71.0719
7.7026e+03,-74.5656
7.7078e+03,-78.0594
7.7130e+03,-75.05
7.7183e+03,-72.0406
7.7235e+03,-73.5469
7.7287e+03,-75.05
7.7339e+03,-75.05
7.7391e+03,-75.05
7.7443e+03,-76.5563
7.7495e+03,-78.0594
7.7547e+03,-76.5563
7.7599e+03,-75.05
7.7651e+03,-73.5469
7.7703e+03,-72.0406
7.7755e+03,-72.0406
7.7808e+03,-72.0406
7.7860e+03,-71.5563
7.7912e+03,-71.0719
7.7964e+03,-74.5656
7.8016e+03,-78.0594
7.8068e+03,-76.5563
7.8120e+03,-75.05
7.8172e+03,-73.0625
7.8224e+03,-71.0719
7.8276e+03,-74.5656
7.8328e+03,-78.0594
7.8380e+03,-74.5656
7.8432e+03,-71.0719
7.8485e+03,-73.0625
7.8537e+03,-75.05
7.8589e+03,-76.5563
7.8641e+03,-78.0594
7.8693e+03,-74.5656
7.8745e+03,-71.0719
7.8797e+03,-74.5656
7.8849e+03,-78.0594
7.8901e+03,-74.5656
7.8953e+03,-71.0719
7.9005e+03,-73.0625
7.9057e+03,-75.05
7.9110e+03,-76.5563
7.9162e+03,-78.0594
7.9214e+03,-78.0594
7.9266e+03,-78.0594
7.9318e+03,-75.05
7.9370e+03,-72.0406
7.9422e+03,-71.5563
7.9474e+03,-71.0719
7.9526e+03,-71.0719
7.9578e+03,-71.0719
7.9630e+03,-73.0625
7.9682e+03,-75.05
7.9734e+03,-76.5563
7.9787e+03,-78.0594
7.9839e+03,-78.0594
7.9891e+03,-78.0594
7.9943e+03,-76.5563
7.9995e+03,-75.05
8.0047e+03,-71.5563
8.0099e+03,-68.0594
8.0151e+03,-73.0594
8.0203e+03,-78.0594
8.0255e+03,-78.0594
8.0307e+03,-78.0594
8.0359e+03,-74.5656
8.0412e+03,-71.0719
8.0464e+03,-74.5656
8.0516e+03,-78.0594
8.0568e+03,-78.0594
8.0620e+03,-78.0594
8.0672e+03,-76.5563
8.0724e+03,-75.05
8.0776e+03,-76.5563
8.0828e+03,-78.0594
8.0880e+03,-76.5563
8.0932e+03,-75.05
8.0984e+03,-76.5563
8.1036e+03,-78.0594
8.1089e+03,-74.5656
8.1141e+03,-71.0719
8.1193e+03,-74.5656
8.1245e+03,-78.0594
8.1297e+03,-76.5563
8.1349e+03,-75.05
8.1401e+03,-76.5563
8.1453e+03,-78.0594
8.1505e+03,-76.5563
8.1557e+03,-75.05
8.1609e+03,-76.5563
8.1661e+03,-78.0594
8.1714e+03,-74.5656
8.1766e+03,-71.0719
8.1818e+03,-71.0719
8.1870e+03,-71.0719
8.1922e+03,-71.5563
8.1974e+03,-72.0406
8.2026e+03,-73.5469
8.2078e+03,-75.05
8.2130e+03,-76.5563
8.2182e+03,-78.0594
8.2234e+03,-78.0594
8.2286e+03,-78.0594
8.2338e+03,-71.9094
8.2391e+03,-65.7562
8.2443e+03,-71.9094
8.2495e+03,-78.0594
8.2547e+03,-78.0594
8.2599e+03,-78.0594
8.2651e+03,-73.5469
8.2703e+03,-69.0312
8.2755e+03,-73.5469
8.2807e+03,-78.0594
8.2859e+03,-74.5656
8.2911e+03,-71.0719
8.2963e+03,-73.0625
8.3016e+03,-75.05
8.3068e+03,-75.05
8.3120e+03,-75.05
8.3172e+03,-73.5469
8.3224e+03,-72.0406
8.3276e+03,-75.05
8.3328e+03,-78.0594
8.3380e+03,-74.5656
8.3432e+03,-71.0719
8.3484e+03,-74.5656
8.3536e+03,-78.0594
8.3588e+03,-74.5656
8.3640e+03,-71.0719
8.3693e+03,-74.5656
8.3745e+03,-78.0594
8.3797e+03,-74.5656
8.3849e+03,-71.0719
8.3901e+03,-73.0625
8.3953e+03,-75.05
8.4005e+03,-73.0625
8.4057e+03,-71.0719
8.4109e+03,-71.0719
8.4161e+03,-71.0719
8.4213e+03,-74.5656
8.4265e+03,-78.0594
8.4318e+03,-76.5563
8.4370e+03,-75.05
8.4422e+03,-76.5563
8.4474e+03,-78.0594
8.4526e+03,-74.5656
8.4578e+03,-71.0719
8.4630e+03,-74.5656
8.4682e+03,-78.0594
8.4734e+03,-76.5563
8.4786e+03,-75.05
8.4838e+03,-73.0625
8.4890e+03,-71.0719
8.4942e+03,-74.5656
8.4995e+03,-78.0594
8.5047e+03,-75.05
8.5099e+03,-72.0406
8.5151e+03,-72.0406
8.5203e+03,-72.0406
8.5255e+03,-72.0406
8.5307e+03,-72.0406
8.5359e+03,-75.05
8.5411e+03,-78.0594
8.5463e+03,-73.5469
8.5515e+03,-69.0312
8.5567e+03,-70.0531
8.5620e+03,-71.0719
8.5672e+03,-74.5656
8.5724e+03,-78.0594
8.5776e+03,-74.5656
8.5828e+03,-71.0719
8.5880e+03,-74.5656
8.5932e+03,-78.0594
8.5984e+03,-74.5656
8.6036e+03,-71.0719
8.6088e+03,-73.0625
8.6140e+03,-75.05
8.6192e+03,-76.5563
8.6244e+03,-78.0594
8.6297e+03,-78.0594
8.6349e+03,-78.0594
8.6401e+03,-78.0594
8.6453e+03,-78.0594
8.6505e+03,-73.5469
8.6557e+03,-69.0312
8.6609e+03,-73.5469
8.6661e+03,-78.0594
8.6713e+03,-73.5469
8.6765e+03,-69.0312
8.6817e+03,-72.0406
8.6869e+03,-75.05
8.6922e+03,-76.5563
8.6974e+03,-78.0594
8.7026e+03,-73.5469
8.7078e+03,-69.0312
8.7130e+03,-73.5469
8.7182e+03,-78.0594
8.7234e+03,-78.0594
8.7286e+03,-78.0594
8.7338e+03,-74.5656
8.7390e+03,-71.0719
8.7442e+03,-74.5656
8.7494e+03,-78.0594
8.7546e+03,-75.05
8.7599e+03,-72.0406
8.7651e+03,-73.5469
8.7703e+03,-75.05
8.7755e+03,-73.0625
8.7807e+03,-71.0719
8.7859e+03,-73.0625
8.7911e+03,-75.05
8.7963e+03,-75.05
8.8015e+03,-75.05
8.8067e+03,-76.5563
8.8119e+03,-78.0594
8.8171e+03,-78.0594
8.8224e+03,-78.0594
8.8276e+03,-76.5563
8.8328e+03,-75.05
8.8380e+03,-73.0625
8.8432e+03,-71.0719
8.8484e+03,-74.5656
8.8536e+03,-78.0594
8.8588e+03,-76.5563
8.8640e+03,-75.05
8.8692e+03,-75.05
8.8744e+03,-75.05
8.8796e+03,-76.5563
8.8848e+03,-78.0594
8.8901e+03,-78.0594
8.8953e+03,-78.0594
8.9005e+03,-76.5563
8.9057e+03,-75.05
8.9109e+03,-75.05
8.9161e+03,-75.05
8.9213e+03,-73.5469
8.9265e+03,-72.0406
8.9317e+03,-75.05
8.9369e+03,-78.0594
8.9421e+03,-78.0594
8.9473e+03,-78.0594
8.9526e+03,-74.5656
8.9578e+03,-71.0719
8.9630e+03,-74.5656
8.9682e+03,-78.0594
8.9734e+03,-73.0594
8.9786e+03,-68.0594
8.9838e+03,-73.0594
8.9890e+03,-78.0594
8.9942e+03,-76.5563
8.9994e+03,-75.05
9.0046e+03,-76.5563
9.0098e+03,-78.0594
9.0150e+03,-74.5656
9.0203e+03,-71.0719
9.0255e+03,-74.5656
9.0307e+03,-78.0594
9.0359e+03,-74.5656
9.0411e+03,-71.0719
9.0463e+03,-73.0625
9.0515e+03,-75.05
9.0567e+03,-73.0625
9.0619e+03,-71.0719
9.0671e+03,-71.5563
9.0723e+03,-72.0406
9.0775e+03,-72.0406
9.0828e+03,-72.0406
9.0880e+03,-72.0406
9.0932e+03,-72.0406
9.0984e+03,-75.05
9.1036e+03,-78.0594
9.1088e+03,-76.5563
9.1140e+03,-75.05
9.1192e+03,-76.5563
9.1244e+03,-78.0594
9.1296e+03,-78.0594
9.1348e+03,-78.0594
9.1400e+03,-78.0594
9.1452e+03,-78.0594
9.1505e+03,-78.0594
9.1557e+03,-78.0594
9.1609e+03,-74.5656
9.1661e+03,-71.0719
9.1713e+03,-74.5656
9.1765e+03,-78.0594
9.1817e+03,-78.0594
9.1869e+03,-78.0594
9.1921e+03,-76.5563
9.1973e+03,-75.05
9.2025e+03,-76.5563
9.2077e+03,-78.0594
9.2130e+03,-78.0594
9.2182e+03,-78.0594
9.2234e+03,-76.5563
9.2286e+03,-75.05
9.2338e+03,-76.5563
9.2390e+03,-78.0594
9.2442e+03,-78.0594
9.2494e+03,-78.0594
9.2546e+03,-78.0594
9.2598e+03,-78.0594
9.2650e+03,-76.5563
9.2702e+03,-75.05
9.2754e+03,-75.05
9.2807e+03,-75.05
9.2859e+03,-76.5563
9.2911e+03,-78.0594
9.2963e+03,-76.5563
9.3015e+03,-75.05
9.3067e+03,-75.05
9.3119e+03,-75.05
9.3171e+03,-75.05
9.3223e+03,-75.05
9.3275e+03,-76.5563
9.3327e+03,-78.0594
9.3379e+03,-74.5656
9.3432e+03,-71.0719
9.3484e+03,-73.0625
9.3536e+03,-75.05
9.3588e+03,-76.5563
9.3640e+03,-78.0594
9.3692e+03,-76.5563
9.3744e+03,-75.05
9.3796e+03,-76.5563
9.3848e+03,-78.0594
9.3900e+03,-75.05
9.3952e+03,-72.0406
9.4004e+03,-71.5563
9.4056e+03,-71.0719
9.4109e+03,-74.5656
9.4161e+03,-78.0594
9.4213e+03,-76.5563
9.4265e+03,-75.05
9.4317e+03,-76.5563
9.4369e+03,-78.0594
9.4421e+03,-76.5563
9.4473e+03,-75.05
9.4525e+03,-75.05
9.4577e+03,-75.05
9.4629e+03,-75.05
9.4681e+03,-75.05
9.4734e+03,-75.05
9.4786e+03,-75.05
9.4838e+03,-76.5563
9.4890e+03,-78.0594
9.4942e+03,-78.0594
9.4994e+03,-78.0594
9.5046e+03,-78.0594
9.5098e+03,-78.0594
9.5150e+03,-76.5563
9.5202e+03,-75.05
9.5254e+03,-73.0625
9.5306e+03,-71.0719
9.5358e+03,-73.0625
9.5411e+03,-75.05
9.5463e+03,-76.5563
9.5515e+03,-78.0594
9.5567e+03,-78.0594
9.5619e+03,-78.0594
9.5671e+03,-74.5656
9.5723e+03,-71.0719
9.5775e+03,-74.5656
9.5827e+03,-78.0594
9.5879e+03,-75.05
9.5931e+03,-72.0406
9.5983e+03,-72.0406
9.6036e+03,-72.0406
9.6088e+03,-75.05
9.6140e+03,-78.0594
9.6192e+03,-76.5563
9.6244e+03,-75.05
9.6296e+03,-75.05
9.6348e+03,-75.05
9.6400e+03,-73.0625
9.6452e+03,-71.0719
9.6504e+03,-73.0625
9.6556e+03,-75.05
9.6608e+03,-73.5469
9.6660e+03,-72.0406
9.6713e+03,-72.0406
9.6765e+03,-72.0406
9.6817e+03,-73.5469
9.6869e+03,-75.05
9.6921e+03,-75.05
9.6973e+03,-75.05
9.7025e+03,-76.5563
9.7077e+03,-78.0594
9.7129e+03,-73.5469
9.7181e+03,-69.0312
9.7233e+03,-73.5469
9.7285e+03,-78.0594
9.7338e+03,-76.5563
9.7390e+03,-75.05
9.7442e+03,-76.5563
9.7494e+03,-78.0594
9.7546e+03,-76.5563
9.7598e+03,-75.05
9.7650e+03,-75.05
9.7702e+03,-75.05
9.7754e+03,-73.0625
9.7806e+03,-71.0719
9.7858e+03,-74.5656
9.7910e+03,-78.0594
9.7962e+03,-78.0594
9.8015e+03,-78.0594
9.8067e+03,-74.5656
9.8119e+03,-71.0719
9.8171e+03,-74.5656
9.8223e+03,-78.0594
9.8275e+03,-74.5656
9.8327e+03,-71.0719
9.8379e+03,-73.0625
9.8431e+03,-75.05
9.8483e+03,-75.05
9.8535e+03,-75.05
9.8587e+03,-76.5563
9.8640e+03,-78.0594
9.8692e+03,-74.5656
9.8744e+03,-71.0719
9.8796e+03,-73.0625
9.8848e+03,-75.05
9.8900e+03,-75.05
9.8952e+03,-75.05
9.9004e+03,-75.05
9.9056e+03,-75.05
9.9108e+03,-76.5563
9.9160e+03,-78.0594
9.9212e+03,-74.5656
9.9264e+03,-71.0719
9.9317e+03,-73.0625
9.9369e+03,-75.05
9.9421e+03,-76.5563
9.9473e+03,-78.0594
9.9525e+03,-76.5563
9.9577e+03,-75.05
9.9629e+03,-76.5563
9.9681e+03,-78.0594
9.9733e+03,-76.5563
9.9785e+03,-75.05
9.9837e+03,-51.7344
9.9889e+03,-28.4156
9.9942e+03,-25.5187
9.9994e+03,-22.6187
1.0005e+04,-25.7188
1.0010e+04,-28.8188
1.0015e+04,-50.4312
1.0020e+04,-72.0406
1.0025e+04,-73.5469
1.0031e+04,-75.05
1.0036e+04,-75.05
1.0041e+04,-75.05
1.0046e+04,-75.05
1.0051e+04,-75.05
1.0057e+04,-73.0625
1.0062e+04,-71.0719
1.0067e+04,-73.0625
1.0072e+04,-75.05
1.0077e+04,-71.5563
1.0083e+04,-68.0594
1.0088e+04,-73.0594
1.0093e+04,-78.0594
1.0098e+04,-74.5656
1.0104e+04,-71.0719
1.0109e+04,-74.5656
1.0114e+04,-78.0594
1.0119e+04,-76.5563
1.0124e+04,-75.05
1.0130e+04,-76.5563
1.0135e+04,-78.0594
1.0140e+04,-76.5563
1.0145e+04,-75.05
1.0150e+04,-71.7844
1.0156e+04,-68.5187
1.0161e+04,-73.2906
1.0166e+04,-78.0594
1.0171e+04,-76.5563
1.0176e+04,-75.05
1.0182e+04,-76.5563
1.0187e+04,-78.0594
1.0192e+04,-74.5656
1.0197e+04,-71.0719
1.0202e+04,-73.0625
1.0208e+04,-75.05
1.0213e+04,-76.5563
1.0218e+04,-78.0594
1.0223e+04,-76.5563
1.0229e+04,-75.05
1.0234e+04,-76.5563
1.0239e+04,-78.0594
1.0244e+04,-78.0594
1.0249e+04,-78.0594
1.0255e+04,-76.5563
1.0260e+04,-75.05
1.0265e+04,-75.05
1.0270e+04,-75.05
1.0275e+04,-75.05
1.0281e+04,-75.05
1.0286e+04,-70.9875
1.0291e+04,-66.9219
1.0296e+04,-72.4906
1.0301e+04,-78.0594
1.0307e+04,-76.5563
1.0312e+04,-75.05
1.0317e+04,-76.5563
1.0322e+04,-78.0594
1.0327e+04,-76.5563
1.0333e+04,-75.05
1.0338e+04,-73.0625
1.0343e+04,-71.0719
1.0348e+04,-74.5656
1.0354e+04,-78.0594
1.0359e+04,-75.05
1.0364e+04,-72.0406
1.0369e+04,-73.5469
1.0374e+04,-75.05
1.0380e+04,-75.05
1.0385e+04,-75.05
1.0390e+04,-76.5563
1.0395e+04,-78.0594
1.0400e+04,-74.5656
1.0406e+04,-71.0719
1.0411e+04,-74.5656
1.0416e+04,-78.0594
1.0421e+04,-76.5563
1.0426e+04,-75.05
1.0432e+04,-75.05
1.0437e+04,-75.05
1.0442e+04,-76.5563
1.0447e+04,-78.0594
1.0452e+04,-78.0594
1.0458e+04,-78.0594
1.0463e+04,-78.0594
1.0468e+04,-78.0594
1.0473e+04,-75.05
1.0478e+04,-72.0406
1.0484e+04,-75.05
1.0489e+04,-78.0594
1.0494e+04,-78.0594
1.0499e+04,-78.0594
1.0505e+04,-74.5656
1.0510e+04,-71.0719
1.0515e+04,-71.5563
1.0520e+04,-72.0406
1.0525e+04,-72.0406
1.0531e+04,-72.0406
1.0536e+04,-75.05
1.0541e+04,-78.0594
1.0546e+04,-76.5563
1.0551e+04,-75.05
1.0557e+04,-73.5469
1.0562e+04,-72.0406
1.0567e+04,-73.5469
1.0572e+04,-75.05
1.0577e+04,-76.5563
1.0583e+04,-78.0594
1.0588e+04,-78.0594
1.0593e+04,-78.0594
1.0598e+04,-78.0594
1.0603e+04,-78.0594
1.0609e+04,-78.0594
1.0614e+04,-78.0594
1.0619e+04,-76.5563
1.0624e+04,-75.05
1.0630e+04,-76.5563
1.0635e+04,-78.0594
1.0640e+04,-74.5656
1.0645e+04,-71.0719
1.0650e+04,-74.5656
1.0656e+04,-78.0594
1.0661e+04,-76.5563
1.0666e+04,-75.05
1.0671e+04,-75.05
1.0676e+04,-75.05
1.0682e+04,-76.5563
1.0687e+04,-78.0594
1.0692e+04,-73.0594
1.0697e+04,-68.0594
1.0702e+04,-73.0594
1.0708e+04,-78.0594
1.0713e+04,-76.5563
1.0718e+04,-75.05
1.0723e+04,-73.5469
1.0728e+04,-72.0406
1.0734e+04,-73.5469
1.0739e+04,-75.05
1.0744e+04,-75.05
1.0749e+04,-75.05
1.0755e+04,-75.05
1.0760e+04,-75.05
1.0765e+04,-73.5469
1.0770e+04,-72.0406
1.0775e+04,-70.5375
1.0781e+04,-69.0312
1.0786e+04,-72.0406
1.0791e+04,-75.05
1.0796e+04,-75.05
1.0801e+04,-75.05
1.0807e+04,-76.5563
1.0812e+04,-78.0594
1.0817e+04,-74.5656
1.0822e+04,-71.0719
1.0827e+04,-74.5656
1.0833e+04,-78.0594
1.0838e+04,-78.0594
1.0843e+04,-78.0594
1.0848e+04,-76.5563
1.0853e+04,-75.05
1.0859e+04,-73.0625
1.0864e+04,-71.0719
1.0869e+04,-73.0625
1.0874e+04,-75.05
1.0880e+04,-73.0625
1.0885e+04,-71.0719
1.0890e+04,-73.0625
1.0895e+04,-75.05
1.0900e+04,-75.05
1.0906e+04,-75.05
1.0911e+04,-76.5563
1.0916e+04,-78.0594
1.0921e+04,-76.5563
1.0926e+04,-75.05
1.0932e+04,-76.5563
1.0937e+04,-78.0594
1.0942e+04,-74.5656
1.0947e+04,-71.0719
1.0952e+04,-74.5656
1.0958e+04,-78.0594
1.0963e+04,-75.05
1.0968e+04,-72.0406
1.0973e+04,-75.05
1.0978e+04,-78.0594
1.0984e+04,-73.0594
1.0989e+04,-68.0594
1.0994e+04,-73.0594
1.0999e+04,-78.0594
1.1005e+04,-75.05
1.1010e+04,-72.0406
1.1015e+04,-75.05
1.1020e+04,-78.0594
1.1025e+04,-73.5469
1.1031e+04,-69.0312
1.1036e+04,-73.5469
1.1041e+04,-78.0594
1.1046e+04,-78.0594
1.1051e+04,-78.0594
1.1057e+04,-76.5563
1.1062e+04,-75.05
1.1067e+04,-76.5563
1.1072e+04,-78.0594
1.1077e+04,-74.5656
1.1083e+04,-71.0719
1.1088e+04,-74.5656
1.1093e+04,-78.0594
1.1098e+04,-76.5563
1.1103e+04,-75.05
1.1109e+04,-75.05
1.1114e+04,-75.05
1.1119e+04,-76.5563
1.1124e+04,-78.0594
1.1129e+04,-74.5656
1.1135e+04,-71.0719
1.1140e+04,-71.5563
1.1145e+04,-72.0406
1.1150e+04,-75.05
1.1156e+04,-78.0594
1.1161e+04,-76.5563
1.1166e+04,-75.05
1.1171e+04,-75.05
1.1176e+04,-75.05
1.1182e+04,-76.5563
1.1187e+04,-78.0594
1.1192e+04,-76.5563
1.1197e+04,-75.05
1.1202e+04,-73.5469
1.1208e+04,-72.0406
1.1213e+04,-72.0406
1.1218e+04,-72.0406
1.1223e+04,-75.05
1.1228e+04,-78.0594
1.1234e+04,-76.5563
1.1239e+04,-75.05
1.1244e+04,-73.0625
1.1249e+04,-71.0719
1.1254e+04,-71.5563
1.1260e+04,-72.0406
1.1265e+04,-73.5469
1.1270e+04,-75.05
1.1275e+04,-75.05
1.1281e+04,-75.05
1.1286e+04,-76.5563
1.1291e+04,-78.0594
1.1296e+04,-74.5656
1.1301e+04,-71.0719
1.1307e+04,-74.5656
1.1312e+04,-78.0594
1.1317e+04,-74.5656
1.1322e+04,-71.0719
1.1327e+04,-73.0625
1.1333e+04,-75.05
1.1338e+04,-76.5563
1.1343e+04,-78.0594
1.1348e+04,-76.5563
1.1353e+04,-75.05
1.1359e+04,-76.5563
1.1364e+04,-78.0594
1.1369e+04,-74.5656
1.1374e+04,-71.0719
1.1379e+04,-73.0625
1.1385e+04,-75.05
1.1390e+04,-75.05
1.1395e+04,-75.05
1.1400e+04,-76.5563
1.1406e+04,-78.0594
1.1411e+04,-74.5656
1.1416e+04,-71.0719
1.1421e+04,-74.5656
1.1426e+04,-78.0594
1.1432e+04,-76.5563
1.1437e+04,-75.05
1.1442e+04,-75.05
1.1447e+04,-75.05
1.1452e+04,-75.05
1.1458e+04,-75.05
1.1463e+04,-76.5563
1.1468e+04,-78.0594
1.1473e+04,-74.5656
1.1478e+04,-71.0719
1.1484e+04,-74.5656
1.1489e+04,-78.0594
1.1494e+04,-76.5563
1.1499e+04,-75.05
1.1504e+04,-73.0625
1.1510e+04,-71.0719
1.1515e+04,-73.0625
1.1520e+04,-75.05
1.1525e+04,-73.0625
1.1531e+04,-71.0719
1.1536e+04,-74.5656
1.1541e+04,-78.0594
1.1546e+04,-76.5563
1.1551e+04,-75.05
1.1557e+04,-76.5563
1.1562e+04,-78.0594
1.1567e+04,-75.05
1.1572e+04,-72.0406
1.1577e+04,-75.05
1.1583e+04,-78.0594
1.1588e+04,-76.5563
1.1593e+04,-75.05
1.1598e+04,-75.05
1.1603e+04,-75.05
1.1609e+04,-73.0625
1.1614e+04,-71.0719
1.1619e+04,-73.0625
1.1624e+04,-75.05
1.1629e+04,-73.0625
1.1635e+04,-71.0719
1.1640e+04,-74.5656
1.1645e+04,-78.0594
1.1650e+04,-78.0594
1.1656e+04,-78.0594
1.1661e+04,-76.5563
1.1666e+04,-75.05
1.1671e+04,-75.05
1.1676e+04,-75.05
1.1682e+04,-75.05
1.1687e+04,-75.05
1.1692e+04,-70.9875
1.1697e+04,-66.9219
1.1702e+04,-70.9875
1.1708e+04,-75.05
1.1713e+04,-75.05
1.1718e+04,-75.05
1.1723e+04,-76.5563
1.1728e+04,-78.0594
1.1734e+04,-74.5656
1.1739e+04,-71.0719
1.1744e+04,-74.5656
1.1749e+04,-78.0594
1.1754e+04,-74.5656
1.1760e+04,-71.0719
1.1765e+04,-74.5656
1.1770e+04,-78.0594
1.1775e+04,-78.0594
1.1780e+04,-78.0594
1.1786e+04,-73.5469
1.1791e+04,-69.0312
1.1796e+04,-70.5375
1.1801e+04,-72.0406
1.1807e+04,-75.05
1.1812e+04,-78.0594
1.1817e+04,-76.5563
1.1822e+04,-75.05
1.1827e+04,-73.5469
1.1833e+04,-72.0406
1.1838e+04,-75.05
1.1843e+04,-78.0594
1.1848e+04,-74.5656
1.1853e+04,-71.0719
1.1859e+04,-74.5656
1.1864e+04,-78.0594
1.1869e+04,-78.0594
1.1874e+04,-78.0594
1.1879e+04,-78.0594
1.1885e+04,-78.0594
1.1890e+04,-76.5563
1.1895e+04,-75.05
1.1900e+04,-75.05
1.1905e+04,-75.05
1.1911e+04,-76.5563
1.1916e+04,-78.0594
1.1921e+04,-75.05
1.1926e+04,-72.0406
1.1932e+04,-70.05
1.1937e+04,-68.0594
1.1942e+04,-73.0594
1.1947e+04,-78.0594
1.1952e+04,-73.5469
1.1958e+04,-69.0312
1.1963e+04,-73.5469
1.1968e+04,-78.0594
1.1973e+04,-76.5563
1.1978e+04,-75.05
1.1984e+04,-73.0625
1.1989e+04,-71.0719
1.1994e+04,-73.0625
1.1999e+04,-75.05
1.2004e+04,-75.05
1.2010e+04,-75.05
1.2015e+04,-76.5563
1.2020e+04,-78.0594
1.2025e+04,-76.5563
1.2030e+04,-75.05
1.2036e+04,-76.5563
1.2041e+04,-78.0594
1.2046e+04,-76.5563
1.2051e+04,-75.05
1.2057e+04,-76.5563
1.2062e+04,-78.0594
1.2067e+04,-76.5563
1.2072e+04,-75.05
1.2077e+04,-73.0625
1.2083e+04,-71.0719
1.2088e+04,-74.5656
1.2093e+04,-78.0594
1.2098e+04,-76.5563
1.2103e+04,-75.05
1.2109e+04,-73.5469
1.2114e+04,-72.0406
1.2119e+04,-71.5563
1.2124e+04,-71.0719
1.2129e+04,-74.5656
1.2135e+04,-78.0594
1.2140e+04,-75.05
1.2145e+04,-72.0406
1.2150e+04,-73.5469
1.2155e+04,-75.05
1.2161e+04,-73.5469
1.2166e+04,-72.0406
1.2171e+04,-73.5469
1.2176e+04,-75.05
1.2182e+04,-75.05
1.2187e+04,-75.05
1.2192e+04,-76.5563
1.2197e+04,-78.0594
1.2202e+04,-75.05
1.2208e+04,-72.0406
1.2213e+04,-75.05
1.2218e+04,-78.0594
1.2223e+04,-75.05
1.2228e+04,-72.0406
1.2234e+04,-75.05
1.2239e+04,-78.0594
1.2244e+04,-76.5563
1.2249e+04,-75.05
1.2254e+04,-75.05
1.2260e+04,-75.05
1.2265e+04,-75.05
1.2270e+04,-75.05
1.2275e+04,-75.05
1.2280e+04,-75.05
1.2286e+04,-76.5563
1.2291e+04,-78.0594
1.2296e+04,-78.0594
1.2301e+04,-78.0594
1.2307e+04,-76.5563
1.2312e+04,-75.05
1.2317e+04,-75.05
1.2322e+04,-75.05
1.2327e+04,-76.5563
1.2333e+04,-78.0594
1.2338e+04,-73.2906
1.2343e+04,-68.5187
1.2348e+04,-70.2812
1.2353e+04,-72.0406
1.2359e+04,-72.0406
1.2364e+04,-72.0406
1.2369e+04,-75.05
1.2374e+04,-78.0594
1.2379e+04,-75.05
1.2385e+04,-72.0406
1.2390e+04,-73.5469
1.2395e+04,-75.05
1.2400e+04,-75.05
1.2405e+04,-75.05
1.2411e+04,-75.05
1.2416e+04,-75.05
1.2421e+04,-76.5563
1.2426e+04,-78.0594
1.2431e+04,-74.5656
1.2437e+04,-71.0719
1.2442e+04,-74.5656
1.2447e+04,-78.0594
1.2452e+04,-74.5656
1.2458e+04,-71.0719
1.2463e+04,-74.5656
1.2468e+04,-78.0594
1.2473e+04,-73.5469
1.2478e+04,-69.0312
1.2484e+04,-73.5469
1.2489e+04,-78.0594
1.2494e+04,-73.5469
1.2499e+04,-69.0312
1.2504e+04,-72.0406
1.2510e+04,-75.05
1.2515e+04,-73.0625
1.2520e+04,-71.0719
1.2525e+04,-74.5656
1.2530e+04,-78.0594
1.2536e+04,-76.5563
1.2541e+04,-75.05
1.2546e+04,-73.0625
1.2551e+04,-71.0719
1.2556e+04,-74.5656
1.2562e+04,-78.0594
1.2567e+04,-76.5563
1.2572e+04,-75.05
1.2577e+04,-76.5563
1.2583e+04,-78.0594
1.2588e+04,-74.5656
1.2593e+04,-71.0719
1.2598e+04,-74.5656
1.2603e+04,-78.0594
1.2609e+04,-74.5656
1.2614e+04,-71.0719
1.2619e+04,-74.5656
1.2624e+04,-78.0594
1.2629e+04,-75.05
1.2635e+04,-72.0406
1.2640e+04,-73.5469
1.2645e+04,-75.05
1.2650e+04,-75.05
1.2655e+04,-75.05
1.2661e+04,-75.05
1.2666e+04,-75.05
1.2671e+04,-75.05
1.2676e+04,-75.05
1.2681e+04,-75.05
1.2687e+04,-75.05
1.2692e+04,-76.5563
1.2697e+04,-78.0594
1.2702e+04,-78.0594
1.2708e+04,-78.0594
1.2713e+04,-74.5656
1.2718e+04,-71.0719
1.2723e+04,-73.0625
1.2728e+04,-75.05
1.2734e+04,-75.05
1.2739e+04,-75.05
1.2744e+04,-72.0406
1.2749e+04,-69.0312
1.2754e+04,-73.5469
1.2760e+04,-78.0594
1.2765e+04,-76.5563
1.2770e+04,-75.05
1.2775e+04,-75.05
1.2780e+04,-75.05
1.2786e+04,-73.0625
1.2791e+04,-71.0719
1.2796e+04,-73.0625
1.2801e+04,-75.05
1.2806e+04,-75.05
1.2812e+04,-75.05
1.2817e+04,-73.0625
1.2822e+04,-71.0719
1.2827e+04,-74.5656
1.2833e+04,-78.0594
1.2838e+04,-74.5656
1.2843e+04,-71.0719
1.2848e+04,-71.5563
1.2853e+04,-72.0406
1.2859e+04,-75.05
1.2864e+04,-78.0594
1.2869e+04,-75.05
1.2874e+04,-72.0406
1.2879e+04,-71.5563
1.2885e+04,-71.0719
1.2890e+04,-74.5656
1.2895e+04,-78.0594
1.2900e+04,-78.0594
1.2905e+04,-78.0594
1.2911e+04,-78.0594
1.2916e+04,-78.0594
1.2921e+04,-74.5656
1.2926e+04,-71.0719
1.2931e+04,-71.0719
1.2937e+04,-71.0719
1.2942e+04,-74.5656
1.2947e+04,-78.0594
1.2952e+04,-78.0594
1.2958e+04,-78.0594
1.2963e+04,-78.0594
1.2968e+04,-78.0594
1.2973e+04,-78.0594
1.2978e+04,-78.0594
1.2984e+04,-76.5563
1.2989e+04,-75.05
1.2994e+04,-73.0625
1.2999e+04,-71.0719
1.3004e+04,-71.5563
1.3010e+04,-72.0406
1.3015e+04,-72.0406
1.3020e+04,-72.0406
1.3025e+04,-72.0406
1.3030e+04,-72.0406
1.3036e+04,-75.05
1.3041e+04,-78.0594
1.3046e+04,-76.5563
1.3051e+04,-75.05
1.3056e+04,-76.5563
1.3062e+04,-78.0594
1.3067e+04,-78.0594
1.3072e+04,-78.0594
1.3077e+04,-78.0594
1.3082e+04,-78.0594
1.3088e+04,-78.0594
1.3093e+04,-78.0594
1.3098e+04,-74.5656
1.3103e+04,-71.0719
1.3109e+04,-73.0625
1.3114e+04,-75.05
1.3119e+04,-75.05
1.3124e+04,-75.05
1.3129e+04,-76.5563
1.3135e+04,-78.0594
1.3140e+04,-78.0594
1.3145e+04,-78.0594
1.3150e+04,-75.05
1.3155e+04,-72.0406
1.3161e+04,-75.05
1.3166e+04,-78.0594
1.3171e+04,-74.5656
1.3176e+04,-71.0719
1.3181e+04,-73.0625
1.3187e+04,-75.05
1.3192e+04,-76.5563
1.3197e+04,-78.0594
1.3202e+04,-75.05
1.3207e+04,-72.0406
1.3213e+04,-75.05
1.3218e+04,-78.0594
1.3223e+04,-76.5563
1.3228e+04,-75.05
1.3234e+04,-76.5563
1.3239e+04,-78.0594
1.3244e+04,-78.0594
1.3249e+04,-78.0594
1.3254e+04,-78.0594
1.3260e+04,-78.0594
1.3265e+04,-78.0594
1.3270e+04,-78.0594
1.3275e+04,-78.0594
1.3280e+04,-78.0594
1.3286e+04,-76.5563
1.3291e+04,-75.05
1.3296e+04,-76.5563
1.3301e+04,-78.0594
1.3306e+04,-78.0594
1.3312e+04,-78.0594
1.3317e+04,-78.0594
1.3322e+04,-78.0594
1.3327e+04,-76.5563
1.3332e+04,-75.05
1.3338e+04,-76.5563
1.3343e+04,-78.0594
1.3348e+04,-78.0594
1.3353e+04,-78.0594
1.3359e+04,-76.5563
1.3364e+04,-75.05
1.3369e+04,-76.5563
1.3374e+04,-78.0594
1.3379e+04,-78.0594
1.3385e+04,-78.0594
1.3390e+04,-78.0594
1.3395e+04,-78.0594
1.3400e+04,-78.0594
1.3405e+04,-78.0594
1.3411e+04,-76.5563
1.3416e+04,-75.05
1.3421e+04,-76.5563
1.3426e+04,-78.0594
1.3431e+04,-78.0594
1.3437e+04,-78.0594
1.3442e+04,-78.0594
1.3447e+04,-78.0594
1.3452e+04,-78.0594
1.3457e+04,-78.0594
1.3463e+04,-78.0594
1.3468e+04,-78.0594
1.3473e+04,-78.0594
1.3478e+04,-78.0594
1.3484e+04,-78.0594
1.3489e+04,-78.0594
1.3494e+04,-76.5563
1.3499e+04,-75.05
1.3504e+04,-75.05
1.3510e+04,-75.05
1.3515e+04,-76.5563
1.3520e+04,-78.0594
1.3525e+04,-78.0594
1.3530e+04,-78.0594
1.3536e+04,-76.5563
1.3541e+04,-75.05
1.3546e+04,-76.5563
1.3551e+04,-78.0594
1.3556e+04,-75.05
1.3562e+04,-72.0406
1.3567e+04,-73.5469
1.3572e+04,-75.05
1.3577e+04,-76.5563
1.3582e+04,-78.0594
1.3588e+04,-78.0594
1.3593e+04,-78.0594
1.3598e+04,-76.5563
1.3603e+04,-75.05
1.3609e+04,-76.5563
1.3614e+04,-78.0594
1.3619e+04,-78.0594
1.3624e+04,-78.0594
1.3629e+04,-76.5563
1.3635e+04,-75.05
1.3640e+04,-76.5563
1.3645e+04,-78.0594
1.3650e+04,-75.05
1.3655e+04,-72.0406
1.3661e+04,-75.05
1.3666e+04,-78.0594
1.3671e+04,-78.0594
1.3676e+04,-78.0594
1.3681e+04,-76.5563
1.3687e+04,-75.05
1.3692e+04,-75.05
1.3697e+04,-75.05
1.3702e+04,-76.5563
1.3707e+04,-78.0594
1.3713e+04,-76.5563
1.3718e+04,-75.05
1.3723e+04,-76.5563
1.3728e+04,-78.0594
1.3733e+04,-78.0594
1.3739e+04,-78.0594
1.3744e+04,-78.0594
1.3749e+04,-78.0594
1.3754e+04,-78.0594
1.3760e+04,-78.0594
1.3765e+04,-78.0594
1.3770e+04,-78.0594
1.3775e+04,-75.05
1.3780e+04,-72.0406
1.3786e+04,-73.5469
1.3791e+04,-75.05
1.3796e+04,-76.5563
1.3801e+04,-78.0594
1.3806e+04,-75.05
1.3812e+04,-72.0406
1.3817e+04,-73.5469
1.3822e+04,-75.05
1.3827e+04,-76.5563
1.3832e+04,-78.0594
1.3838e+04,-78.0594
1.3843e+04,-78.0594
1.3848e+04,-76.5563
1.3853e+04,-75.05
1.3858e+04,-76.5563
1.3864e+04,-78.0594
1.3869e+04,-78.0594
1.3874e+04,-78.0594
1.3879e+04,-78.0594
1.3885e+04,-78.0594
1.3890e+04,-76.5563
1.3895e+04,-75.05
1.3900e+04,-76.5563
1.3905e+04,-78.0594
1.3911e+04,-74.5656
1.3916e+04,-71.0719
1.3921e+04,-74.5656
1.3926e+04,-78.0594
1.3931e+04,-78.0594
1.3937e+04,-78.0594
1.3942e+04,-74.5656
1.3947e+04,-71.0719
1.3952e+04,-74.5656
1.3957e+04,-78.0594
1.3963e+04,-74.5656
1.3968e+04,-71.0719
1.3973e+04,-74.5656
1.3978e+04,-78.0594
1.3983e+04,-78.0594
1.3989e+04,-78.0594
1.3994e+04,-76.5563
1.3999e+04,-75.05
1.4004e+04,-76.5563
1.4010e+04,-78.0594
1.4015e+04,-78.0594
1.4020e+04,-78.0594
1.4025e+04,-76.5563
1.4030e+04,-75.05
1.4036e+04,-76.5563
1.4041e+04,-78.0594
1.4046e+04,-78.0594
1.4051e+04,-78.0594
1.4056e+04,-78.0594
1.4062e+04,-78.0594
1.4067e+04,-78.0594
1.4072e+04,-78.0594
1.4077e+04,-76.5563
1.4082e+04,-75.05
1.4088e+04,-76.5563
1.4093e+04,-78.0594
1.4098e+04,-78.0594
1.4103e+04,-78.0594
1.4108e+04,-78.0594
1.4114e+04,-78.0594
1.4119e+04,-76.5563
1.4124e+04,-75.05
1.4129e+04,-76.5563
1.4135e+04,-78.0594
1.4140e+04,-78.0594
1.4145e+04,-78.0594
1.4150e+04,-78.0594
1.4155e+04,-78.0594
1.4161e+04,-78.0594
1.4166e+04,-78.0594
1.4171e+04,-78.0594
1.4176e+04,-78.0594
1.4181e+04,-78.0594
1.4187e+04,-78.0594
1.4192e+04,-78.0594
1.4197e+04,-78.0594
1.4202e+04,-75.05
1.4207e+04,-72.0406
1.4213e+04,-75.05
1.4218e+04,-78.0594
1.4223e+04,-78.0594
1.4228e+04,-78.0594
1.4233e+04,-75.05
1.4239e+04,-72.0406
1.4244e+04,-73.5469
1.4249e+04,-75.05
1.4254e+04,-76.5563
1.4260e+04,-78.0594
1.4265e+04,-75.05
1.4270e+04,-72.0406
1.4275e+04,-73.5469
1.4280e+04,-75.05
1.4286e+04,-76.5563
1.4291e+04,-78.0594
1.4296e+04,-78.0594
1.4301e+04,-78.0594
1.4306e+04,-76.5563
1.4312e+04,-75.05
1.4317e+04,-76.5563
1.4322e+04,-78.0594
1.4327e+04,-78.0594
1.4332e+04,-78.0594
1.4338e+04,-76.5563
1.4343e+04,-75.05
1.4348e+04,-75.05
1.4353e+04,-75.05
1.4358e+04,-76.5563
1.4364e+04,-78.0594
1.4369e+04,-78.0594
1.4374e+04,-78.0594
1.4379e+04,-75.05
1.4384e+04,-72.0406
1.4390e+04,-73.5469
1.4395e+04,-75.05
1.4400e+04,-76.5563
1.4405e+04,-78.0594
1.4411e+04,-76.5563
1.4416e+04,-75.05
1.4421e+04,-75.05
1.4426e+04,-75.05
1.4431e+04,-73.0625
1.4437e+04,-71.0719
1.4442e+04,-73.0625
1.4447e+04,-75.05
1.4452e+04,-76.5563
1.4457e+04,-78.0594
1.4463e+04,-76.5563
1.4468e+04,-75.05
1.4473e+04,-76.5563
1.4478e+04,-78.0594
1.4483e+04,-76.5563
1.4489e+04,-75.05
1.4494e+04,-76.5563
1.4499e+04,-78.0594
1.4504e+04,-78.0594
1.4509e+04,-78.0594
1.4515e+04,-74.5656
1.4520e+04,-71.0719
1.4525e+04,-71.0719
1.4530e+04,-71.0719
1.4536e+04,-74.5656
1.4541e+04,-78.0594
1.4546e+04,-76.5563
1.4551e+04,-75.05
1.4556e+04,-75.05
1.4562e+04,-75.05
1.4567e+04,-76.5563
1.4572e+04,-78.0594
1.4577e+04,-78.0594
1.4582e+04,-78.0594
1.4588e+04,-78.0594
1.4593e+04,-78.0594
1.4598e+04,-76.5563
1.4603e+04,-75.05
1.4608e+04,-76.5563
1.4614e+04,-78.0594
1.4619e+04,-78.0594
1.4624e+04,-78.0594
1.4629e+04,-78.0594
1.4634e+04,-78.0594
1.4640e+04,-78.0594
1.4645e+04,-78.0594
1.4650e+04,-76.5563
1.4655e+04,-75.05
1.4661e+04,-76.5563
1.4666e+04,-78.0594
1.4671e+04,-78.0594
1.4676e+04,-78.0594
1.4681e+04,-78.0594
1.4687e+04,-78.0594
1.4692e+04,-78.0594
1.4697e+04,-78.0594
1.4702e+04,-76.5563
1.4707e+04,-75.05
1.4713e+04,-76.5563
1.4718e+04,-78.0594
1.4723e+04,-78.0594
1.4728e+04,-78.0594
1.4733e+04,-76.5563
1.4739e+04,-75.05
1.4744e+04,-76.5563
1.4749e+04,-78.0594
1.4754e+04,-76.5563
1.4759e+04,-75.05
1.4765e+04,-76.5563
1.4770e+04,-78.0594
1.4775e+04,-78.0594
1.4780e+04,-78.0594
1.4786e+04,-74.5656
1.4791e+04,-71.0719
1.4796e+04,-74.5656
1.4801e+04,-78.0594
1.4806e+04,-78.0594
1.4812e+04,-78.0594
1.4817e+04,-78.0594
1.4822e+04,-78.0594
1.4827e+04,-75.05
1.4832e+04,-72.0406
1.4838e+04,-75.05
1.4843e+04,-78.0594
1.4848e+04,-74.5656
1.4853e+04,-71.0719
1.4858e+04,-74.5656
1.4864e+04,-78.0594
1.4869e+04,-75.05
1.4874e+04,-72.0406
1.4879e+04,-75.05
1.4884e+04,-78.0594
1.4890e+04,-76.5563
1.4895e+04,-75.05
1.4900e+04,-73.0625
1.4905e+04,-71.0719
1.4911e+04,-74.5656
1.4916e+04,-78.0594
1.4921e+04,-78.0594
1.4926e+04,-78.0594
1.4931e+04,-74.5656
1.4937e+04,-71.0719
1.4942e+04,-74.5656
1.4947e+04,-78.0594
1.4952e+04,-75.05
1.4957e+04,-72.0406
1.4963e+04,-73.5469
1.4968e+04,-75.05
1.4973e+04,-73.0625
1.4978e+04,-71.0719
1.4983e+04,-74.5656
1.4989e+04,-78.0594
1.4994e+04,-78.0594
1.4999e+04,-78.0594
1.5004e+04,-78.0594
1.5009e+04,-78.0594
1.5015e+04,-78.0594
1.5020e+04,-78.0594
1.5025e+04,-78.0594
1.5030e+04,-78.0594
1.5035e+04,-78.0594
1.5041e+04,-78.0594
1.5046e+04,-75.05
1.5051e+04,-72.0406
1.5056e+04,-73.5469
1.5062e+04,-75.05
1.5067e+04,-76.5563
1.5072e+04,-78.0594
1.5077e+04,-78.0594
1.5082e+04,-78.0594
1.5088e+04,-75.05
1.5093e+04,-72.0406
1.5098e+04,-72.0406
1.5103e+04,-72.0406
1.5108e+04,-73.5469
1.5114e+04,-75.05
1.5119e+04,-76.5563
1.5124e+04,-78.0594
1.5129e+04,-75.05
1.5134e+04,-72.0406
1.5140e+04,-75.05
1.5145e+04,-78.0594
1.5150e+04,-78.0594
1.5155e+04,-78.0594
1.5160e+04,-76.5563
1.5166e+04,-75.05
1.5171e+04,-76.5563
1.5176e+04,-78.0594
1.5181e+04,-76.5563
1.5187e+04,-75.05
1.5192e+04,-76.5563
1.5197e+04,-78.0594
1.5202e+04,-78.0594
1.5207e+04,-78.0594
1.5213e+04,-78.0594
1.5218e+04,-78.0594
1.5223e+04,-76.5563
1.5228e+04,-75.05
1.5233e+04,-76.5563
1.5239e+04,-78.0594
1.5244e+04,-78.0594
1.5249e+04,-78.0594
1.5254e+04,-78.0594
1.5259e+04,-78.0594
1.5265e+04,-75.05
1.5270e+04,-72.0406
1.5275e+04,-75.05
1.5280e+04,-78.0594
1.5285e+04,-78.0594
1.5291e+04,-78.0594
1.5296e+04,-78.0594
1.5301e+04,-78.0594
1.5306e+04,-73.5469
1.5312e+04,-69.0312
1.5317e+04,-73.5469
1.5322e+04,-78.0594
1.5327e+04,-74.5656
1.5332e+04,-71.0719
1.5338e+04,-71.5563
1.5343e+04,-72.0406
1.5348e+04,-75.05
1.5353e+04,-78.0594
1.5358e+04,-78.0594
1.5364e+04,-78.0594
1.5369e+04,-76.5563
1.5374e+04,-75.05
1.5379e+04,-76.5563
1.5384e+04,-78.0594
1.5390e+04,-78.0594
1.5395e+04,-78.0594
1.5400e+04,-78.0594
1.5405e+04,-78.0594
1.5410e+04,-75.05
1.5416e+04,-72.0406
1.5421e+04,-75.05
1.5426e+04,-78.0594
1.5431e+04,-76.5563
1.5437e+04,-75.05
1.5442e+04,-73.0625
1.5447e+04,-71.0719
1.5452e+04,-74.5656
1.5457e+04,-78.0594
1.5463e+04,-78.0594
1.5468e+04,-78.0594
1.5473e+04,-78.0594
1.5478e+04,-78.0594
1.5483e+04,-78.0594
1.5489e+04,-78.0594
1.5494e+04,-75.05
1.5499e+04,-72.0406
1.5504e+04,-75.05
1.5509e+04,-78.0594
1.5515e+04,-76.5563
1.5520e+04,-75.05
1.5525e+04,-75.05
1.5530e+04,-75.05
1.5535e+04,-76.5563
1.5541e+04,-78.0594
1.5546e+04,-74.5656
1.5551e+04,-71.0719
1.5556e+04,-74.5656
1.5562e+04,-78.0594
1.5567e+04,-75.05
1.5572e+04,-72.0406
1.5577e+04,-75.05
1.5582e+04,-78.0594
1.5588e+04,-74.5656
1.5593e+04,-71.0719
1.5598e+04,-74.5656
1.5603e+04,-78.0594
1.5608e+04,-78.0594
1.5614e+04,-78.0594
1.5619e+04,-78.0594
1.5624e+04,-78.0594
1.5629e+04,-78.0594
1.5634e+04,-78.0594
1.5640e+04,-78.0594
1.5645e+04,-78.0594
1.5650e+04,-78.0594
1.5655e+04,-78.0594
1.5660e+04,-76.5563
1.5666e+04,-75.05
1.5671e+04,-76.5563
1.5676e+04,-78.0594
1.5681e+04,-78.0594
1.5686e+04,-78.0594
1.5692e+04,-78.0594
1.5697e+04,-78.0594
1.5702e+04,-78.0594
1.5707e+04,-78.0594
1.5713e+04,-76.5563
1.5718e+04,-75.05
1.5723e+04,-75.05
1.5728e+04,-75.05
1.5733e+04,-73.0625
1.5739e+04,-71.0719
1.5744e+04,-74.5656
1.5749e+04,-78.0594
1.5754e+04,-78.0594
1.5759e+04,-78.0594
1.5765e+04,-78.0594
1.5770e+04,-78.0594
1.5775e+04,-74.5656
1.5780e+04,-71.0719
1.5785e+04,-74.5656
1.5791e+04,-78.0594
1.5796e+04,-78.0594
1.5801e+04,-78.0594
1.5806e+04,-74.5656
1.5811e+04,-71.0719
1.5817e+04,-74.5656
1.5822e+04,-78.0594
1.5827e+04,-78.0594
1.5832e+04,-78.0594
1.5838e+04,-74.5656
1.5843e+04,-71.0719
1.5848e+04,-74.5656
1.5853e+04,-78.0594
1.5858e+04,-76.5563
1.5864e+04,-75.05
1.5869e+04,-76.5563
1.5874e+04,-78.0594
1.5879e+04,-76.5563
1.5884e+04,-75.05
1.5890e+04,-76.5563
1.5895e+04,-78.0594
1.5900e+04,-78.0594
1.5905e+04,-78.0594
1.5910e+04,-78.0594
1.5916e+04,-78.0594
1.5921e+04,-74.5656
1.5926e+04,-71.0719
1.5931e+04,-74.5656
1.5936e+04,-78.0594
1.5942e+04,-78.0594
1.5947e+04,-78.0594
1.5952e+04,-75.05
1.5957e+04,-72.0406
1.5963e+04,-75.05
1.5968e+04,-78.0594
1.5973e+04,-76.5563
1.5978e+04,-75.05
1.5983e+04,-76.5563
1.5989e+04,-78.0594
1.5994e+04,-74.5656
1.5999e+04,-71.0719
1.6004e+04,-74.5656
1.6009e+04,-78.0594
1.6015e+04,-78.0594
1.6020e+04,-78.0594
1.6025e+04,-71.7844
1.6030e+04,-65.5094
1.6035e+04,-68.2906
1.6041e+04,-71.0719
1.6046e+04,-71.0719
1.6051e+04,-71.0719
1.6056e+04,-74.5656
1.6061e+04,-78.0594
1.6067e+04,-78.0594
1.6072e+04,-78.0594
1.6077e+04,-76.5563
1.6082e+04,-75.05
1.6088e+04,-76.5563
1.6093e+04,-78.0594
1.6098e+04,-76.5563
1.6103e+04,-75.05
1.6108e+04,-76.5563
1.6114e+04,-78.0594
1.6119e+04,-73.0594
1.6124e+04,-68.0594
1.6129e+04,-73.0594
1.6134e+04,-78.0594
1.6140e+04,-78.0594
1.6145e+04,-78.0594
1.6150e+04,-76.5563
1.6155e+04,-75.05
1.6160e+04,-76.5563
1.6166e+04,-78.0594
1.6171e+04,-78.0594
1.6176e+04,-78.0594
1.6181e+04,-78.0594
1.6186e+04,-78.0594
1.6192e+04,-78.0594
1.6197e+04,-78.0594
1.6202e+04,-76.5563
1.6207e+04,-75.05
1.6213e+04,-76.5563
1.6218e+04,-78.0594
1.6223e+04,-78.0594
1.6228e+04,-78.0594
1.6233e+04,-78.0594
1.6239e+04,-78.0594
1.6244e+04,-75.05
1.6249e+04,-72.0406
1.6254e+04,-75.05
1.6259e+04,-78.0594
1.6265e+04,-78.0594
1.6270e+04,-78.0594
1.6275e+04,-75.05
1.6280e+04,-72.0406
1.6285e+04,-75.05
1.6291e+04,-78.0594
1.6296e+04,-78.0594
1.6301e+04,-78.0594
1.6306e+04,-76.5563
1.6311e+04,-75.05
1.6317e+04,-76.5563
1.6322e+04,-78.0594
1.6327e+04,-78.0594
1.6332e+04,-78.0594
1.6337e+04,-76.5563
1.6343e+04,-75.05
1.6348e+04,-76.5563
1.6353e+04,-78.0594
1.6358e+04,-76.5563
1.6364e+04,-75.05
1.6369e+04,-76.5563
1.6374e+04,-78.0594
1.6379e+04,-78.0594
1.6384e+04,-78.0594
1.6390e+04,-78.0594
1.6395e+04,-78.0594
1.6400e+04,-78.0594
1.6405e+04,-78.0594
1.6410e+04,-74.5656
1.6416e+04,-71.0719
1.6421e+04,-74.5656
1.6426e+04,-78.0594
1.6431e+04,-76.5563
1.6436e+04,-75.05
1.6442e+04,-76.5563
1.6447e+04,-78.0594
1.6452e+04,-76.5563
1.6457e+04,-75.05
1.6462e+04,-76.5563
1.6468e+04,-78.0594
1.6473e+04,-78.0594
1.6478e+04,-78.0594
1.6483e+04,-74.5656
1.6489e+04,-71.0719
1.6494e+04,-74.5656
1.6499e+04,-78.0594
1.6504e+04,-78.0594
1.6509e+04,-78.0594
1.6515e+04,-78.0594
1.6520e+04,-78.0594
1.6525e+04,-76.5563
1.6530e+04,-75.05
1.6535e+04,-76.5563
1.6541e+04,-78.0594
1.6546e+04,-78.0594
1.6551e+04,-78.0594
1.6556e+04,-78.0594
1.6561e+04,-78.0594
1.6567e+04,-78.0594
1.6572e+04,-78.0594
1.6577e+04,-75.05
1.6582e+04,-72.0406
1.6587e+04,-75.05
1.6593e+04,-78.0594
1.6598e+04,-76.5563
1.6603e+04,-75.05
1.6608e+04,-75.05
1.6614e+04,-75.05
1.6619e+04,-76.5563
1.6624e+04,-78.0594
1.6629e+04,-78.0594
1.6634e+04,-78.0594
1.6640e+04,-74.5656
1.6645e+04,-71.0719
1.6650e+04,-74.5656
1.6655e+04,-78.0594
1.6660e+04,-73.5469
1.6666e+04,-69.0312
1.6671e+04,-73.5469
1.6676e+04,-78.0594
1.6681e+04,-78.0594
1.6686e+04,-78.0594
1.6692e+04,-78.0594
1.6697e+04,-78.0594
1.6702e+04,-78.0594
1.6707e+04,-78.0594
1.6712e+04,-78.0594
1.6718e+04,-78.0594
1.6723e+04,-78.0594
1.6728e+04,-78.0594
1.6733e+04,-76.5563
1.6739e+04,-75.05
1.6744e+04,-75.05
1.6749e+04,-75.05
1.6754e+04,-76.5563
1.6759e+04,-78.0594
1.6765e+04,-78.0594
1.6770e+04,-78.0594
1.6775e+04,-75.05
1.6780e+04,-72.0406
1.6785e+04,-73.5469
1.6791e+04,-75.05
1.6796e+04,-76.5563
1.6801e+04,-78.0594
1.6806e+04,-78.0594
1.6811e+04,-78.0594
1.6817e+04,-78.0594
1.6822e+04,-78.0594
1.6827e+04,-75.05
1.6832e+04,-72.0406
1.6837e+04,-71.5563
1.6843e+04,-71.0719
1.6848e+04,-74.5656
1.6853e+04,-78.0594
1.6858e+04,-78.0594
1.6864e+04,-78.0594
1.6869e+04,-75.05
1.6874e+04,-72.0406
1.6879e+04,-75.05
1.6884e+04,-78.0594
1.6890e+04,-78.0594
1.6895e+04,-78.0594
1.6900e+04,-74.5656
1.6905e+04,-71.0719
1.6910e+04,-74.5656
1.6916e+04,-78.0594
1.6921e+04,-76.5563
1.6926e+04,-75.05
1.6931e+04,-76.5563
1.6936e+04,-78.0594
1.6942e+04,-76.5563
1.6947e+04,-75.05
1.6952e+04,-75.05
1.6957e+04,-75.05
1.6962e+04,-76.5563
1.6968e+04,-78.0594
1.6973e+04,-78.0594
1.6978e+04,-78.0594
1.6983e+04,-78.0594
1.6988e+04,-78.0594
1.6994e+04,-78.0594
1.6999e+04,-78.0594
1.7004e+04,-76.5563
1.7009e+04,-75.05
1.7015e+04,-76.5563
1.7020e+04,-78.0594
1.7025e+04,-78.0594
1.7030e+04,-78.0594
1.7035e+04,-78.0594
1.7041e+04,-78.0594
1.7046e+04,-78.0594
1.7051e+04,-78.0594
1.7056e+04,-76.5563
1.7061e+04,-75.05
1.7067e+04,-76.5563
1.7072e+04,-78.0594
1.7077e+04,-76.5563
1.7082e+04,-75.05
1.7087e+04,-76.5563
1.7093e+04,-78.0594
1.7098e+04,-78.0594
1.7103e+04,-78.0594
1.7108e+04,-74.5656
1.7113e+04,-71.0719
1.7119e+04,-74.5656
1.7124e+04,-78.0594
1.7129e+04,-78.0594
1.7134e+04,-78.0594
1.7140e+04,-74.5656
1.7145e+04,-71.0719
1.7150e+04,-74.5656
1.7155e+04,-78.0594
1.7160e+04,-78.0594
1.7166e+04,-78.0594
1.7171e+04,-78.0594
1.7176e+04,-78.0594
1.7181e+04,-76.5563
1.7186e+04,-75.05
1.7192e+04,-76.5563
1.7197e+04,-78.0594
1.7202e+04,-78.0594
1.7207e+04,-78.0594
1.7212e+04,-76.5563
1.7218e+04,-75.05
1.7223e+04,-75.05
1.7228e+04,-75.05
1.7233e+04,-73.0625
1.7238e+04,-71.0719
1.7244e+04,-71.0719
1.7249e+04,-71.0719
1.7254e+04,-73.0625
1.7259e+04,-75.05
1.7265e+04,-76.5563
1.7270e+04,-78.0594
1.7275e+04,-78.0594
1.7280e+04,-78.0594
1.7285e+04,-75.05
1.7291e+04,-72.0406
1.7296e+04,-73.5469
1.7301e+04,-75.05
1.7306e+04,-76.5563
1.7311e+04,-78.0594
1.7317e+04,-76.5563
1.7322e+04,-75.05
1.7327e+04,-76.5563
1.7332e+04,-78.0594
1.7337e+04,-78.0594
1.7343e+04,-78.0594
1.7348e+04,-74.5656
1.7353e+04,-71.0719
1.7358e+04,-74.5656
1.7363e+04,-78.0594
1.7369e+04,-78.0594
1.7374e+04,-78.0594
1.7379e+04,-78.0594
1.7384e+04,-78.0594
1.7390e+04,-78.0594
1.7395e+04,-78.0594
1.7400e+04,-74.5656
1.7405e+04,-71.0719
1.7410e+04,-74.5656
1.7416e+04,-78.0594
1.7421e+04,-75.05
1.7426e+04,-72.0406
1.7431e+04,-73.5469
1.7436e+04,-75.05
1.7442e+04,-75.05
1.7447e+04,-75.05
1.7452e+04,-76.5563
1.7457e+04,-78.0594
1.7462e+04,-78.0594
1.7468e+04,-78.0594
1.7473e+04,-78.0594
1.7478e+04,-78.0594
1.7483e+04,-78.0594
1.7488e+04,-78.0594
1.7494e+04,-78.0594
1.7499e+04,-78.0594
1.7504e+04,-76.5563
1.7509e+04,-75.05
1.7515e+04,-76.5563
1.7520e+04,-78.0594
1.7525e+04,-76.5563
1.7530e+04,-75.05
1.7535e+04,-76.5563
1.7541e+04,-78.0594
1.7546e+04,-78.0594
1.7551e+04,-78.0594
1.7556e+04,-76.5563
1.7561e+04,-75.05
1.7567e+04,-76.5563
1.7572e+04,-78.0594
1.7577e+04,-76.5563
1.7582e+04,-75.05
1.7587e+04,-73.0625
1.7593e+04,-71.0719
1.7598e+04,-74.5656
1.7603e+04,-78.0594
1.7608e+04,-78.0594
1.7613e+04,-78.0594
1.7619e+04,-78.0594
1.7624e+04,-78.0594
1.7629e+04,-78.0594
1.7634e+04,-78.0594
1.7639e+04,-74.5656
1.7645e+04,-71.0719
1.7650e+04,-74.5656
1.7655e+04,-78.0594
1.7660e+04,-76.5563
1.7666e+04,-75.05
1.7671e+04,-76.5563
1.7676e+04,-78.0594
1.7681e+04,-78.0594
1.7686e+04,-78.0594
1.7692e+04,-76.5563
1.7697e+04,-75.05
1.7702e+04,-76.5563
1.7707e+04,-78.0594
1.7712e+04,-78.0594
1.7718e+04,-78.0594
1.7723e+04,-78.0594
1.7728e+04,-78.0594
1.7733e+04,-76.5563
1.7738e+04,-75.05
1.7744e+04,-76.5563
1.7749e+04,-78.0594
1.7754e+04,-75.05
1.7759e+04,-72.0406
1.7764e+04,-75.05
1.7770e+04,-78.0594
1.7775e+04,-78.0594
1.7780e+04,-78.0594
1.7785e+04,-78.0594
1.7791e+04,-78.0594
1.7796e+04,-73.5469
1.7801e+04,-69.0312
1.7806e+04,-73.5469
1.7811e+04,-78.0594
1.7817e+04,-78.0594
1.7822e+04,-78.0594
1.7827e+04,-78.0594
1.7832e+04,-78.0594
1.7837e+04,-78.0594
1.7843e+04,-78.0594
1.7848e+04,-78.0594
1.7853e+04,-78.0594
1.7858e+04,-74.5656
1.7863e+04,-71.0719
1.7869e+04,-74.5656
1.7874e+04,-78.0594
1.7879e+04,-78.0594
1.7884e+04,-78.0594
1.7889e+04,-78.0594
1.7895e+04,-78.0594
1.7900e+04,-78.0594
1.7905e+04,-78.0594
1.7910e+04,-78.0594
1.7916e+04,-78.0594
1.7921e+04,-78.0594
1.7926e+04,-78.0594
1.7931e+04,-78.0594
1.7936e+04,-78.0594
1.7942e+04,-76.5563
1.7947e+04,-75.05
1.7952e+04,-76.5563
1.7957e+04,-78.0594
1.7962e+04,-78.0594
1.7968e+04,-78.0594
1.7973e+04,-78.0594
1.7978e+04,-78.0594
1.7983e+04,-76.5563
1.7988e+04,-75.05
1.7994e+04,-76.5563
1.7999e+04,-78.0594
1.8004e+04,-78.0594
1.8009e+04,-78.0594
1.8014e+04,-76.5563
1.8020e+04,-75.05
1.8025e+04,-76.5563
1.8030e+04,-78.0594
1.8035e+04,-78.0594
1.8041e+04,-78.0594
1.8046e+04,-76.5563
1.8051e+04,-75.05
1.8056e+04,-76.5563
1.8061e+04,-78.0594
1.8067e+04,-74.5656
1.8072e+04,-71.0719
1.8077e+04,-71.0719
1.8082e+04,-71.0719
1.8087e+04,-73.0625
1.8093e+04,-75.05
1.8098e+04,-76.5563
1.8103e+04,-78.0594
1.8108e+04,-76.5563
1.8113e+04,-75.05
1.8119e+04,-76.5563
1.8124e+04,-78.0594
1.8129e+04,-76.5563
1.8134e+04,-75.05
1.8139e+04,-76.5563
1.8145e+04,-78.0594
1.8150e+04,-78.0594
1.8155e+04,-78.0594
1.8160e+04,-76.5563
1.8166e+04,-75.05
1.8171e+04,-76.5563
1.8176e+04,-78.0594
1.8181e+04,-78.0594
1.8186e+04,-78.0594
1.8192e+04,-74.5656
1.8197e+04,-71.0719
1.8202e+04,-71.5563
1.8207e+04,-72.0406
1.8212e+04,-71.5563
1.8218e+04,-71.0719
1.8223e+04,-74.5656
1.8228e+04,-78.0594
1.8233e+04,-73.0594
1.8238e+04,-68.0594
1.8244e+04,-73.0594
1.8249e+04,-78.0594
1.8254e+04,-76.5563
1.8259e+04,-75.05
1.8264e+04,-76.5563
1.8270e+04,-78.0594
1.8275e+04,-78.0594
1.8280e+04,-78.0594
1.8285e+04,-78.0594
1.8290e+04,-78.0594
1.8296e+04,-76.5563
1.8301e+04,-75.05
1.8306e+04,-76.5563
1.8311e+04,-78.0594
1.8317e+04,-78.0594
1.8322e+04,-78.0594
1.8327e+04,-78.0594
1.8332e+04,-78.0594
1.8337e+04,-78.0594
1.8343e+04,-78.0594
1.8348e+04,-78.0594
1.8353e+04,-78.0594
1.8358e+04,-76.5563
1.8363e+04,-75.05
1.8369e+04,-76.5563
1.8374e+04,-78.0594
1.8379e+04,-78.0594
1.8384e+04,-78.0594
1.8389e+04,-78.0594
1.8395e+04,-78.0594
1.8400e+04,-78.0594
1.8405e+04,-78.0594
1.8410e+04,-78.0594
1.8415e+04,-78.0594
1.8421e+04,-78.0594
1.8426e+04,-78.0594
1.8431e+04,-78.0594
1.8436e+04,-78.0594
1.8442e+04,-76.5563
1.8447e+04,-75.05
1.8452e+04,-76.5563
1.8457e+04,-78.0594
1.8462e+04,-78.0594
1.8468e+04,-78.0594
1.8473e+04,-75.05
1.8478e+04,-72.0406
1.8483e+04,-75.05
1.8488e+04,-78.0594
1.8494e+04,-76.5563
1.8499e+04,-75.05
1.8504e+04,-73.0625
1.8509e+04,-71.0719
1.8514e+04,-74.5656
1.8520e+04,-78.0594
1.8525e+04,-78.0594
1.8530e+04,-78.0594
1.8535e+04,-75.05
1.8540e+04,-72.0406
1.8546e+04,-75.05
1.8551e+04,-78.0594
1.8556e+04,-78.0594
1.8561e+04,-78.0594
1.8567e+04,-78.0594
1.8572e+04,-78.0594
1.8577e+04,-78.0594
1.8582e+04,-78.0594
1.8587e+04,-75.05
1.8593e+04,-72.0406
1.8598e+04,-70.5375
1.8603e+04,-69.0312
1.8608e+04,-73.5469
1.8613e+04,-78.0594
1.8619e+04,-76.5563
1.8624e+04,-75.05
1.8629e+04,-76.5563
1.8634e+04,-78.0594
1.8639e+04,-78.0594
1.8645e+04,-78.0594
1.8650e+04,-78.0594
1.8655e+04,-78.0594
1.8660e+04,-78.0594
1.8665e+04,-78.0594
1.8671e+04,-76.5563
1.8676e+04,-75.05
1.8681e+04,-76.5563
1.8686e+04,-78.0594
1.8692e+04,-78.0594
1.8697e+04,-78.0594
1.8702e+04,-76.5563
1.8707e+04,-75.05
1.8712e+04,-76.5563
1.8718e+04,-78.0594
1.8723e+04,-78.0594
1.8728e+04,-78.0594
1.8733e+04,-78.0594
1.8738e+04,-78.0594
1.8744e+04,-78.0594
1.8749e+04,-78.0594
1.8754e+04,-74.5656
1.8759e+04,-71.0719
1.8764e+04,-74.5656
1.8770e+04,-78.0594
1.8775e+04,-78.0594
1.8780e+04,-78.0594
1.8785e+04,-78.0594
1.8790e+04,-78.0594
1.8796e+04,-78.0594
1.8801e+04,-78.0594
1.8806e+04,-76.5563
1.8811e+04,-75.05
1.8817e+04,-76.5563
1.8822e+04,-78.0594
1.8827e+04,-76.5563
1.8832e+04,-75.05
1.8837e+04,-76.5563
1.8843e+04,-78.0594
1.8848e+04,-78.0594
1.8853e+04,-78.0594
1.8858e+04,-76.5563
1.8863e+04,-75.05
1.8869e+04,-76.5563
1.8874e+04,-78.0594
1.8879e+04,-76.5563
1.8884e+04,-75.05
1.8889e+04,-76.5563
1.8895e+04,-78.0594
1.8900e+04,-74.5656
1.8905e+04,-71.0719
1.8910e+04,-74.5656
1.8915e+04,-78.0594
1.8921e+04,-78.0594
1.8926e+04,-78.0594
1.8931e+04,-78.0594
1.8936e+04,-78.0594
1.8941e+04,-78.0594
1.8947e+04,-78.0594
1.8952e+04,-74.5656
1.8957e+04,-71.0719
1.8962e+04,-74.5656
1.8968e+04,-78.0594
1.8973e+04,-75.05
1.8978e+04,-72.0406
1.8983e+04,-75.05
1.8988e+04,-78.0594
1.8994e+04,-78.0594
1.8999e+04,-78.0594
1.9004e+04,-78.0594
1.9009e+04,-78.0594
1.9014e+04,-78.0594
1.9020e+04,-78.0594
1.9025e+04,-76.5563
1.9030e+04,-75.05
1.9035e+04,-75.05
1.9040e+04,-75.05
1.9046e+04,-76.5563
1.9051e+04,-78.0594
1.9056e+04,-78.0594
1.9061e+04,-78.0594
1.9066e+04,-78.0594
1.9072e+04,-78.0594
1.9077e+04,-78.0594
1.9082e+04,-78.0594
1.9087e+04,-76.5563
1.9093e+04,-75.05
1.9098e+04,-75.05
1.9103e+04,-75.05
1.9108e+04,-76.5563
1.9113e+04,-78.0594
1.9119e+04,-76.5563
1.9124e+04,-75.05
1.9129e+04,-76.5563
1.9134e+04,-78.0594
1.9139e+04,-76.5563
1.9145e+04,-75.05
1.9150e+04,-76.5563
1.9155e+04,-78.0594
1.9160e+04,-78.0594
1.9165e+04,-78.0594
1.9171e+04,-76.5563
1.9176e+04,-75.05
1.9181e+04,-76.5563
1.9186e+04,-78.0594
1.9191e+04,-74.5656
1.9197e+04,-71.0719
1.9202e+04,-74.5656
1.9207e+04,-78.0594
1.9212e+04,-78.0594
1.9218e+04,-78.0594
1.9223e+04,-78.0594
1.9228e+04,-78.0594
1.9233e+04,-76.5563
1.9238e+04,-75.05
1.9244e+04,-75.05
1.9249e+04,-75.05
1.9254e+04,-76.5563
1.9259e+04,-78.0594
1.9264e+04,-78.0594
1.9270e+04,-78.0594
1.9275e+04,-76.5563
1.9280e+04,-75.05
1.9285e+04,-75.05
1.9290e+04,-75.05
1.9296e+04,-76.5563
1.9301e+04,-78.0594
1.9306e+04,-78.0594
1.9311e+04,-78.0594
1.9316e+04,-78.0594
1.9322e+04,-78.0594
1.9327e+04,-78.0594
1.9332e+04,-78.0594
1.9337e+04,-75.05
1.9343e+04,-72.0406
1.9348e+04,-75.05
1.9353e+04,-78.0594
1.9358e+04,-75.05
1.9363e+04,-72.0406
1.9369e+04,-75.05
1.9374e+04,-78.0594
1.9379e+04,-78.0594
1.9384e+04,-78.0594
1.9389e+04,-78.0594
1.9395e+04,-78.0594
1.9400e+04,-78.0594
1.9405e+04,-78.0594
1.9410e+04,-76.5563
1.9415e+04,-75.05
1.9421e+04,-76.5563
1.9426e+04,-78.0594
1.9431e+04,-76.5563
1.9436e+04,-75.05
1.9441e+04,-76.5563
1.9447e+04,-78.0594
1.9452e+04,-78.0594
1.9457e+04,-78.0594
1.9462e+04,-78.0594
1.9468e+04,-78.0594
1.9473e+04,-78.0594
1.9478e+04,-78.0594
1.9483e+04,-76.5563
1.9488e+04,-75.05
1.9494e+04,-76.5563
1.9499e+04,-78.0594
1.9504e+04,-78.0594
1.9509e+04,-78.0594
1.9514e+04,-78.0594
1.9520e+04,-78.0594
1.9525e+04,-78.0594
1.9530e+04,-78.0594
1.9535e+04,-76.5563
1.9540e+04,-75.05
1.9546e+04,-76.5563
1.9551e+04,-78.0594
1.9556e+04,-78.0594
1.9561e+04,-78.0594
1.9566e+04,-76.5563
1.9572e+04,-75.05
1.9577e+04,-75.05
1.9582e+04,-75.05
1.9587e+04,-76.5563
1.9592e+04,-78.0594
1.9598e+04,-78.0594
1.9603e+04,-78.0594
1.9608e+04,-78.0594
1.9613e+04,-78.0594
1.9619e+04,-76.5563
1.9624e+04,-75.05
1.9629e+04,-76.5563
1.9634e+04,-78.0594
1.9639e+04,-78.0594
1.9645e+04,-78.0594
1.9650e+04,-78.0594
1.9655e+04,-78.0594
1.9660e+04,-78.0594
1.9665e+04,-78.0594
1.9671e+04,-78.0594
1.9676e+04,-78.0594
1.9681e+04,-78.0594
1.9686e+04,-78.0594
1.9691e+04,-78.0594
1.9697e+04,-78.0594
1.9702e+04,-78.0594
1.9707e+04,-78.0594
1.9712e+04,-78.0594
1.9717e+04,-78.0594
1.9723e+04,-78.0594
1.9728e+04,-78.0594
1.9733e+04,-76.5563
1.9738e+04,-75.05
1.9744e+04,-75.05
1.9749e+04,-75.05
1.9754e+04,-76.5563
1.9759e+04,-78.0594
1.9764e+04,-78.0594
1.9770e+04,-78.0594
1.9775e+04,-78.0594
1.9780e+04,-78.0594
1.9785e+04,-76.5563
1.9790e+04,-75.05
1.9796e+04,-76.5563
1.9801e+04,-78.0594
1.9806e+04,-78.0594
1.9811e+04,-78.0594
1.9816e+04,-76.5563
1.9822e+04,-75.05
1.9827e+04,-75.05
1.9832e+04,-75.05
1.9837e+04,-75.05
1.9842e+04,-75.05
1.9848e+04,-76.5563
1.9853e+04,-78.0594
1.9858e+04,-78.0594
1.9863e+04,-78.0594
1.9869e+04,-78.0594
1.9874e+04,-78.0594
1.9879e+04,-78.0594
1.9884e+04,-78.0594
1.9889e+04,-78.0594
1.9895e+04,-78.0594
1.9900e+04,-78.0594
1.9905e+04,-78.0594
1.9910e+04,-78.0594
1.9915e+04,-78.0594
1.9921e+04,-78.0594
1.9926e+04,-78.0594
1.9931e+04,-74.5656
1.9936e+04,-71.0719
1.9941e+04,-71.0719
1.9947e+04,-71.0719
1.9952e+04,-74.5656
1.9957e+04,-78.0594
1.9962e+04,-78.0594
1.9967e+04,-78.0594
1.9973e+04,-78.0594
1.9978e+04,-78.0594
1.9983e+04,-76.5563
1.9988e+04,-75.05
1.9994e+04,-76.5563
1.9999e+04,-78.0594
2.0004e+04,-76.5563
2.0009e+04,-75.05
2.0014e+04,-76.5563
2.0020e+04,-78.0594
2.0025e+04,-78.0594
2.0030e+04,-78.0594
2.0035e+04,-78.0594
2.0040e+04,-78.0594
2.0046e+04,-78.0594
2.0051e+04,-78.0594
2.0056e+04,-78.0594
2.0061e+04,-78.0594
2.0066e+04,-78.0594
2.0072e+04,-78.0594
2.0077e+04,-78.0594
2.0082e+04,-78.0594
2.0087e+04,-78.0594
2.0092e+04,-78.0594
2.0098e+04,-76.5563
2.0103e+04,-75.05
2.0108e+04,-76.5563
2.0113e+04,-78.0594
2.0119e+04,-78.0594
2.0124e+04,-78.0594
2.0129e+04,-75.05
2.0134e+04,-72.0406
2.0139e+04,-73.5469
2.0145e+04,-75.05
2.0150e+04,-75.05
2.0155e+04,-75.05
2.0160e+04,-76.5563
2.0165e+04,-78.0594
2.0171e+04,-73.0594
2.0176e+04,-68.0594
2.0181e+04,-71.5563
2.0186e+04,-75.05
2.0191e+04,-76.5563
2.0197e+04,-78.0594
2.0202e+04,-78.0594
2.0207e+04,-78.0594
2.0212e+04,-78.0594
2.0217e+04,-78.0594
2.0223e+04,-78.0594
2.0228e+04,-78.0594
2.0233e+04,-78.0594
2.0238e+04,-78.0594
2.0243e+04,-78.0594
2.0249e+04,-78.0594
2.0254e+04,-78.0594
2.0259e+04,-78.0594
2.0264e+04,-76.5563
2.0270e+04,-75.05
2.0275e+04,-71.5563
2.0280e+04,-68.0594
2.0285e+04,-73.0594
2.0290e+04,-78.0594
2.0296e+04,-78.0594
2.0301e+04,-78.0594
2.0306e+04,-78.0594
2.0311e+04,-78.0594
2.0316e+04,-76.5563
2.0322e+04,-75.05
2.0327e+04,-75.05
2.0332e+04,-75.05
2.0337e+04,-76.5563
2.0342e+04,-78.0594
2.0348e+04,-74.5656
2.0353e+04,-71.0719
2.0358e+04,-74.5656
2.0363e+04,-78.0594
2.0368e+04,-74.5656
2.0374e+04,-71.0719
2.0379e+04,-74.5656
2.0384e+04,-78.0594
2.0389e+04,-78.0594
2.0395e+04,-78.0594
2.0400e+04,-78.0594
2.0405e+04,-78.0594
2.0410e+04,-78.0594
2.0415e+04,-78.0594
2.0421e+04,-78.0594
2.0426e+04,-78.0594
2.0431e+04,-78.0594
2.0436e+04,-78.0594
2.0441e+04,-75.05
2.0447e+04,-72.0406
2.0452e+04,-75.05
2.0457e+04,-78.0594
2.0462e+04,-78.0594
2.0467e+04,-78.0594
2.0473e+04,-76.5563
2.0478e+04,-75.05
2.0483e+04,-76.5563
2.0488e+04,-78.0594
2.0493e+04,-78.0594
2.0499e+04,-78.0594
2.0504e+04,-76.5563
2.0509e+04,-75.05
2.0514e+04,-76.5563
2.0520e+04,-78.0594
2.0525e+04,-78.0594
2.0530e+04,-78.0594
2.0535e+04,-78.0594
2.0540e+04,-78.0594
2.0546e+04,-76.5563
2.0551e+04,-75.05
2.0556e+04,-76.5563
2.0561e+04,-78.0594
2.0566e+04,-76.5563
2.0572e+04,-75.05
2.0577e+04,-76.5563
2.0582e+04,-78.0594
2.0587e+04,-78.0594
2.0592e+04,-78.0594
2.0598e+04,-78.0594
2.0603e+04,-78.0594
2.0608e+04,-78.0594
2.0613e+04,-78.0594
2.0618e+04,-78.0594
2.0624e+04,-78.0594
2.0629e+04,-78.0594
2.0634e+04,-78.0594
2.0639e+04,-78.0594
2.0645e+04,-78.0594
2.0650e+04,-78.0594
2.0655e+04,-78.0594
2.0660e+04,-78.0594
2.0665e+04,-78.0594
2.0671e+04,-75.05
2.0676e+04,-72.0406
2.0681e+04,-75.05
2.0686e+04,-78.0594
2.0691e+04,-78.0594
2.0697e+04,-78.0594
2.0702e+04,-78.0594
2.0707e+04,-78.0594
2.0712e+04,-78.0594
2.0717e+04,-78.0594
2.0723e+04,-78.0594
2.0728e+04,-78.0594
2.0733e+04,-78.0594
2.0738e+04,-78.0594
2.0743e+04,-76.5563
2.0749e+04,-75.05
2.0754e+04,-76.5563
2.0759e+04,-78.0594
2.0764e+04,-78.0594
2.0770e+04,-78.0594
2.0775e+04,-78.0594
2.0780e+04,-78.0594
2.0785e+04,-78.0594
2.0790e+04,-78.0594
2.0796e+04,-78.0594
2.0801e+04,-78.0594
2.0806e+04,-76.5563
2.0811e+04,-75.05
2.0816e+04,-76.5563
2.0822e+04,-78.0594
2.0827e+04,-76.5563
2.0832e+04,-75.05
2.0837e+04,-76.5563
2.0842e+04,-78.0594
2.0848e+04,-75.05
2.0853e+04,-72.0406
2.0858e+04,-75.05
2.0863e+04,-78.0594
2.0868e+04,-78.0594
2.0874e+04,-78.0594
2.0879e+04,-78.0594
2.0884e+04,-78.0594
2.0889e+04,-78.0594
2.0894e+04,-78.0594
2.0900e+04,-76.5563
2.0905e+04,-75.05
2.0910e+04,-75.05
2.0915e+04,-75.05
2.0921e+04,-76.5563
2.0926e+04,-78.0594
2.0931e+04,-78.0594
2.0936e+04,-78.0594
2.0941e+04,-78.0594
2.0947e+04,-78.0594
2.0952e+04,-76.5563
2.0957e+04,-75.05
2.0962e+04,-76.5563
2.0967e+04,-78.0594
2.0973e+04,-75.05
2.0978e+04,-72.0406
2.0983e+04,-75.05
2.0988e+04,-78.0594
2.0993e+04,-78.0594
2.0999e+04,-78.0594
2.1004e+04,-75.05
2.1009e+04,-72.0406
2.1014e+04,-75.05
2.1019e+04,-78.0594
2.1025e+04,-75.05
2.1030e+04,-72.0406
2.1035e+04,-75.05
2.1040e+04,-78.0594
2.1046e+04,-74.5656
2.1051e+04,-71.0719
2.1056e+04,-74.5656
2.1061e+04,-78.0594
2.1066e+04,-78.0594
2.1072e+04,-78.0594
2.1077e+04,-74.5656
2.1082e+04,-71.0719
2.1087e+04,-73.0625
2.1092e+04,-75.05
2.1098e+04,-76.5563
2.1103e+04,-78.0594
2.1108e+04,-78.0594
2.1113e+04,-78.0594
2.1118e+04,-78.0594
2.1124e+04,-78.0594
2.1129e+04,-78.0594
2.1134e+04,-78.0594
2.1139e+04,-78.0594
2.1144e+04,-78.0594
2.1150e+04,-78.0594
2.1155e+04,-78.0594
2.1160e+04,-78.0594
2.1165e+04,-78.0594
2.1171e+04,-78.0594
2.1176e+04,-78.0594
2.1181e+04,-78.0594
2.1186e+04,-78.0594
2.1191e+04,-74.5656
2.1197e+04,-71.0719
2.1202e+04,-74.5656
2.1207e+04,-78.0594
2.1212e+04,-76.5563
2.1217e+04,-75.05
2.1223e+04,-76.5563
2.1228e+04,-78.0594
2.1233e+04,-78.0594
2.1238e+04,-78.0594
2.1243e+04,-78.0594
2.1249e+04,-78.0594
2.1254e+04,-78.0594
2.1259e+04,-78.0594
2.1264e+04,-76.5563
2.1269e+04,-75.05
2.1275e+04,-76.5563
2.1280e+04,-78.0594
2.1285e+04,-76.5563
2.1290e+04,-75.05
2.1296e+04,-75.05
2.1301e+04,-75.05
2.1306e+04,-76.5563
2.1311e+04,-78.0594
2.1316e+04,-74.5656
2.1322e+04,-71.0719
2.1327e+04,-74.5656
2.1332e+04,-78.0594
2.1337e+04,-78.0594
2.1342e+04,-78.0594
2.1348e+04,-74.5656
2.1353e+04,-71.0719
2.1358e+04,-73.0625
2.1363e+04,-75.05
2.1368e+04,-76.5563
2.1374e+04,-78.0594
2.1379e+04,-78.0594
2.1384e+04,-78.0594
2.1389e+04,-78.0594
2.1394e+04,-78.0594
2.1400e+04,-76.5563
2.1405e+04,-75.05
2.1410e+04,-75.05
2.1415e+04,-75.05
2.1421e+04,-76.5563
2.1426e+04,-78.0594
2.1431e+04,-76.5563
2.1436e+04,-75.05
2.1441e+04,-76.5563
2.1447e+04,-78.0594
2.1452e+04,-76.5563
2.1457e+04,-75.05
2.1462e+04,-76.5563
2.1467e+04,-78.0594
2.1473e+04,-78.0594
2.1478e+04,-78.0594
2.1483e+04,-76.5563
2.1488e+04,-75.05
2.1493e+04,-76.5563
2.1499e+04,-78.0594
2.1504e+04,-78.0594
2.1509e+04,-78.0594
2.1514e+04,-78.0594
2.1519e+04,-78.0594
2.1525e+04,-78.0594
2.1530e+04,-78.0594
2.1535e+04,-76.5563
2.1540e+04,-75.05
2.1545e+04,-73.5469
2.1551e+04,-72.0406
2.1556e+04,-73.5469
2.1561e+04,-75.05
2.1566e+04,-73.5469
2.1572e+04,-72.0406
2.1577e+04,-75.05
2.1582e+04,-78.0594
2.1587e+04,-75.05
2.1592e+04,-72.0406
2.1598e+04,-72.0406
2.1603e+04,-72.0406
2.1608e+04,-73.5469
2.1613e+04,-75.05
2.1618e+04,-76.5563
2.1624e+04,-78.0594
2.1629e+04,-78.0594
2.1634e+04,-78.0594
2.1639e+04,-76.5563
2.1644e+04,-75.05
2.1650e+04,-76.5563
2.1655e+04,-78.0594
2.1660e+04,-76.5563
2.1665e+04,-75.05
2.1670e+04,-75.05
2.1676e+04,-75.05
2.1681e+04,-76.5563
2.1686e+04,-78.0594
2.1691e+04,-78.0594
2.1697e+04,-78.0594
2.1702e+04,-78.0594
2.1707e+04,-78.0594
2.1712e+04,-76.5563
2.1717e+04,-75.05
2.1723e+04,-75.05
2.1728e+04,-75.05
2.1733e+04,-76.5563
2.1738e+04,-78.0594
2.1743e+04,-78.0594
2.1749e+04,-78.0594
2.1754e+04,-76.5563
2.1759e+04,-75.05
2.1764e+04,-76.5563
2.1769e+04,-78.0594
2.1775e+04,-78.0594
2.1780e+04,-78.0594
2.1785e+04,-74.5656
2.1790e+04,-71.0719
2.1795e+04,-71.0719
2.1801e+04,-71.0719
2.1806e+04,-71.0719
2.1811e+04,-71.0719
2.1816e+04,-74.5656
2.1822e+04,-78.0594
2.1827e+04,-78.0594
2.1832e+04,-78.0594
2.1837e+04,-74.5656
2.1842e+04,-71.0719
2.1848e+04,-74.5656
2.1853e+04,-78.0594
2.1858e+04,-75.05
2.1863e+04,-72.0406
2.1868e+04,-75.05
2.1874e+04,-78.0594
2.1879e+04,-75.05
2.1884e+04,-72.0406
2.1889e+04,-75.05
2.1894e+04,-78.0594
2.1900e+04,-78.0594
2.1905e+04,-78.0594
2.1910e+04,-78.0594
2.1915e+04,-78.0594
2.1920e+04,-78.0594
2.1926e+04,-78.0594
2.1931e+04,-78.0594
2.1936e+04,-78.0594
2.1941e+04,-75.05
2.1947e+04,-72.0406
2.1952e+04,-75.05
2.1957e+04,-78.0594
2.1962e+04,-76.5563
2.1967e+04,-75.05
2.1973e+04,-76.5563
2.1978e+04,-78.0594
2.1983e+04,-74.5656
2.1988e+04,-71.0719
2.1993e+04,-74.5656
2.1999e+04,-78.0594
2.2004e+04,-78.0594
2.2009e+04,-78.0594
2.2014e+04,-75.05
2.2019e+04,-72.0406
2.2025e+04,-75.05
2.2030e+04,-78.0594
2.2035e+04,-78.0594
2.2040e+04,-78.0594
2.2045e+04,-78.0594
2.2051e+04,-78.0594
2.2056e+04,-75.05
2.2061e+04,-72.0406
2.2066e+04,-70.2812
2.2072e+04,-68.5187
2.2077e+04,-73.2906
2.2082e+04,-78.0594
2.2087e+04,-76.5563
2.2092e+04,-75.05
2.2098e+04,-75.05
2.2103e+04,-75.05
2.2108e+04,-76.5563
2.2113e+04,-78.0594
2.2118e+04,-78.0594
2.2124e+04,-78.0594
2.2129e+04,-76.5563
2.2134e+04,-75.05
2.2139e+04,-75.05
2.2144e+04,-75.05
2.2150e+04,-75.05
2.2155e+04,-75.05
2.2160e+04,-76.5563
2.2165e+04,-78.0594
2.2170e+04,-78.0594
2.2176e+04,-78.0594
2.2181e+04,-74.5656
2.2186e+04,-71.0719
2.2191e+04,-73.0625
2.2196e+04,-75.05
2.2202e+04,-75.05
2.2207e+04,-75.05
2.2212e+04,-75.05
2.2217e+04,-75.05
2.2223e+04,-76.5563
2.2228e+04,-78.0594
2.2233e+04,-76.5563
2.2238e+04,-75.05
2.2243e+04,-76.5563
2.2249e+04,-78.0594
2.2254e+04,-78.0594
2.2259e+04,-78.0594
2.2264e+04,-75.05
2.2269e+04,-72.0406
2.2275e+04,-71.5563
2.2280e+04,-71.0719
2.2285e+04,-74.5656
2.2290e+04,-78.0594
2.2295e+04,-74.5656
2.2301e+04,-71.0719
2.2306e+04,-73.0625
2.2311e+04,-75.05
2.2316e+04,-76.5563
2.2321e+04,-78.0594
2.2327e+04,-78.0594
2.2332e+04,-78.0594
2.2337e+04,-78.0594
2.2342e+04,-78.0594
2.2348e+04,-78.0594
2.2353e+04,-78.0594
2.2358e+04,-74.5656
2.2363e+04,-71.0719
2.2368e+04,-74.5656
2.2374e+04,-78.0594
2.2379e+04,-78.0594
2.2384e+04,-78.0594
2.2389e+04,-75.05
2.2394e+04,-72.0406
2.2400e+04,-73.5469
2.2405e+04,-75.05
2.2410e+04,-76.5563
2.2415e+04,-78.0594
2.2420e+04,-74.5656
2.2426e+04,-71.0719
2.2431e+04,-74.5656
2.2436e+04,-78.0594
2.2441e+04,-78.0594
2.2446e+04,-78.0594
2.2452e+04,-76.5563
2.2457e+04,-75.05
2.2462e+04,-75.05
2.2467e+04,-75.05
2.2473e+04,-76.5563
2.2478e+04,-78.0594
2.2483e+04,-75.05
2.2488e+04,-72.0406
2.2493e+04,-75.05
2.2499e+04,-78.0594
2.2504e+04,-78.0594
2.2509e+04,-78.0594
2.2514e+04,-78.0594
2.2519e+04,-78.0594
2.2525e+04,-78.0594
2.2530e+04,-78.0594
2.2535e+04,-76.5563
2.2540e+04,-75.05
2.2545e+04,-76.5563
2.2551e+04,-78.0594
2.2556e+04,-76.5563
2.2561e+04,-75.05
2.2566e+04,-76.5563
2.2571e+04,-78.0594
2.2577e+04,-76.5563
2.2582e+04,-75.05
2.2587e+04,-76.5563
2.2592e+04,-78.0594
2.2598e+04,-78.0594
2.2603e+04,-78.0594
2.2608e+04,-78.0594
2.2613e+04,-78.0594
2.2618e+04,-78.0594
2.2624e+04,-78.0594
2.2629e+04,-74.5656
2.2634e+04,-71.0719
2.2639e+04,-73.0625
2.2644e+04,-75.05
2.2650e+04,-75.05
2.2655e+04,-75.05
2.2660e+04,-76.5563
2.2665e+04,-78.0594
2.2670e+04,-76.5563
2.2676e+04,-75.05
2.2681e+04,-76.5563
2.2686e+04,-78.0594
2.2691e+04,-76.5563
2.2696e+04,-75.05
2.2702e+04,-75.05
2.2707e+04,-75.05
2.2712e+04,-76.5563
2.2717e+04,-78.0594
2.2723e+04,-78.0594
2.2728e+04,-78.0594
2.2733e+04,-76.5563
2.2738e+04,-75.05
2.2743e+04,-76.5563
2.2749e+04,-78.0594
2.2754e+04,-78.0594
2.2759e+04,-78.0594
2.2764e+04,-75.05
2.2769e+04,-72.0406
2.2775e+04,-75.05
2.2780e+04,-78.0594
2.2785e+04,-78.0594
2.2790e+04,-78.0594
2.2795e+04,-76.5563
2.2801e+04,-75.05
2.2806e+04,-75.05
2.2811e+04,-75.05
2.2816e+04,-75.05
2.2821e+04,-75.05
2.2827e+04,-75.05
2.2832e+04,-75.05
2.2837e+04,-76.5563
2.2842e+04,-78.0594
2.2847e+04,-76.5563
2.2853e+04,-75.05
2.2858e+04,-76.5563
2.2863e+04,-78.0594
2.2868e+04,-76.5563
2.2874e+04,-75.05
2.2879e+04,-76.5563
2.2884e+04,-78.0594
2.2889e+04,-76.5563
2.2894e+04,-75.05
2.2900e+04,-76.5563
2.2905e+04,-78.0594
2.2910e+04,-74.5656
2.2915e+04,-71.0719
2.2920e+04,-73.0625
2.2926e+04,-75.05
2.2931e+04,-71.7844
2.2936e+04,-68.5187
2.2941e+04,-71.7844
2.2946e+04,-75.05
2.2952e+04,-76.5563
2.2957e+04,-78.0594
2.2962e+04,-75.05
2.2967e+04,-72.0406
2.2972e+04,-75.05
2.2978e+04,-78.0594
2.2983e+04,-76.5563
2.2988e+04,-75.05
2.2993e+04,-76.5563
2.2999e+04,-78.0594
2.3004e+04,-75.05
2.3009e+04,-72.0406
2.3014e+04,-73.5469
2.3019e+04,-75.05
2.3025e+04,-75.05
2.3030e+04,-75.05
2.3035e+04,-76.5563
2.3040e+04,-78.0594
2.3045e+04,-74.5656
2.3051e+04,-71.0719
2.3056e+04,-74.5656
2.3061e+04,-78.0594
2.3066e+04,-74.5656
2.3071e+04,-71.0719
2.3077e+04,-74.5656
2.3082e+04,-78.0594
2.3087e+04,-76.5563
2.3092e+04,-75.05
2.3097e+04,-76.5563
2.3103e+04,-78.0594
2.3108e+04,-78.0594
2.3113e+04,-78.0594
2.3118e+04,-76.5563
2.3124e+04,-75.05
2.3129e+04,-76.5563
2.3134e+04,-78.0594
2.3139e+04,-78.0594
2.3144e+04,-78.0594
2.3150e+04,-74.5656
2.3155e+04,-71.0719
2.3160e+04,-74.5656
2.3165e+04,-78.0594
2.3170e+04,-78.0594
2.3176e+04,-78.0594
2.3181e+04,-75.05
2.3186e+04,-72.0406
2.3191e+04,-73.5469
2.3196e+04,-75.05
2.3202e+04,-76.5563
2.3207e+04,-78.0594
2.3212e+04,-78.0594
2.3217e+04,-78.0594
2.3222e+04,-78.0594
2.3228e+04,-78.0594
2.3233e+04,-78.0594
2.3238e+04,-78.0594
2.3243e+04,-78.0594
2.3249e+04,-78.0594
2.3254e+04,-78.0594
2.3259e+04,-78.0594
2.3264e+04,-78.0594
2.3269e+04,-78.0594
2.3275e+04,-78.0594
2.3280e+04,-78.0594
2.3285e+04,-75.05
2.3290e+04,-72.0406
2.3295e+04,-75.05
2.3301e+04,-78.0594
2.3306e+04,-78.0594
2.3311e+04,-78.0594
2.3316e+04,-78.0594
2.3321e+04,-78.0594
2.3327e+04,-78.0594
2.3332e+04,-78.0594
2.3337e+04,-76.5563
2.3342e+04,-75.05
2.3347e+04,-76.5563
2.3353e+04,-78.0594
2.3358e+04,-78.0594
2.3363e+04,-78.0594
2.3368e+04,-78.0594
2.3374e+04,-78.0594
2.3379e+04,-76.5563
2.3384e+04,-75.05
2.3389e+04,-76.5563
2.3394e+04,-78.0594
2.3400e+04,-76.5563
2.3405e+04,-75.05
2.3410e+04,-76.5563
2.3415e+04,-78.0594
2.3420e+04,-76.5563
2.3426e+04,-75.05
2.3431e+04,-73.0625
2.3436e+04,-71.0719
2.3441e+04,-73.0625
2.3446e+04,-75.05
2.3452e+04,-75.05
2.3457e+04,-75.05
2.3462e+04,-76.5563
2.3467e+04,-78.0594
2.3472e+04,-76.5563
2.3478e+04,-75.05
2.3483e+04,-76.5563
2.3488e+04,-78.0594
2.3493e+04,-78.0594
2.3498e+04,-78.0594
2.3504e+04,-78.0594
2.3509e+04,-78.0594
2.3514e+04,-74.5656
2.3519e+04,-71.0719
2.3525e+04,-74.5656
2.3530e+04,-78.0594
2.3535e+04,-74.5656
2.3540e+04,-71.0719
2.3545e+04,-74.5656
2.3551e+04,-78.0594
2.3556e+04,-78.0594
2.3561e+04,-78.0594
2.3566e+04,-78.0594
2.3571e+04,-78.0594
2.3577e+04,-78.0594
2.3582e+04,-78.0594
2.3587e+04,-76.5563
2.3592e+04,-75.05
2.3597e+04,-76.5563
2.3603e+04,-78.0594
2.3608e+04,-78.0594
2.3613e+04,-78.0594
2.3618e+04,-74.5656
2.3623e+04,-71.0719
2.3629e+04,-73.0625
2.3634e+04,-75.05
2.3639e+04,-72.0406
2.3644e+04,-69.0312
2.3650e+04,-73.5469
2.3655e+04,-78.0594
2.3660e+04,-76.5563
2.3665e+04,-75.05
2.3670e+04,-76.5563
2.3676e+04,-78.0594
2.3681e+04,-78.0594
2.3686e+04,-78.0594
2.3691e+04,-78.0594
2.3696e+04,-78.0594
2.3702e+04,-78.0594
2.3707e+04,-78.0594
2.3712e+04,-78.0594
2.3717e+04,-78.0594
2.3722e+04,-78.0594
2.3728e+04,-78.0594
2.3733e+04,-78.0594
2.3738e+04,-78.0594
2.3743e+04,-78.0594
2.3748e+04,-78.0594
2.3754e+04,-76.5563
2.3759e+04,-75.05
2.3764e+04,-75.05
2.3769e+04,-75.05
2.3775e+04,-76.5563
2.3780e+04,-78.0594
2.3785e+04,-78.0594
2.3790e+04,-78.0594
2.3795e+04,-78.0594
2.3801e+04,-78.0594
2.3806e+04,-78.0594
2.3811e+04,-78.0594
2.3816e+04,-78.0594
2.3821e+04,-78.0594
2.3827e+04,-76.5563
2.3832e+04,-75.05
2.3837e+04,-75.05
2.3842e+04,-75.05
2.3847e+04,-76.5563
2.3853e+04,-78.0594
2.3858e+04,-74.5656
2.3863e+04,-71.0719
2.3868e+04,-74.5656
2.3873e+04,-78.0594
2.3879e+04,-76.5563
2.3884e+04,-75.05
2.3889e+04,-75.05
2.3894e+04,-75.05
2.3900e+04,-73.5469
2.3905e+04,-72.0406
2.3910e+04,-75.05
2.3915e+04,-78.0594
2.3920e+04,-75.05
2.3926e+04,-72.0406
2.3931e+04,-71.5563
2.3936e+04,-71.0719
2.3941e+04,-71.0719
2.3946e+04,-71.0719
2.3952e+04,-71.0719
2.3957e+04,-71.0719
2.3962e+04,-74.5656
2.3967e+04,-78.0594
2.3972e+04,-76.5563
2.3978e+04,-75.05
2.3983e+04,-76.5563
2.3988e+04,-78.0594
2.3993e+04,-78.0594
2.3998e+04,-78.0594
2.4004e+04,-76.5563
2.4009e+04,-75.05
2.4014e+04,-76.5563
2.4019e+04,-78.0594
2.4025e+04,-73.5469
2.4030e+04,-69.0312
2.4035e+04,-73.5469
2.4040e+04,-78.0594
2.4045e+04,-76.5563
2.4051e+04,-75.05
2.4056e+04,-75.05
2.4061e+04,-75.05
2.4066e+04,-76.5563
2.4071e+04,-78.0594
2.4077e+04,-76.5563
2.4082e+04,-75.05
2.4087e+04,-76.5563
2.4092e+04,-78.0594
2.4097e+04,-74.5656
2.4103e+04,-71.0719
2.4108e+04,-73.0625
2.4113e+04,-75.05
2.4118e+04,-73.0625
2.4123e+04,-71.0719
2.4129e+04,-74.5656
2.4134e+04,-78.0594
2.4139e+04,-74.5656
2.4144e+04,-71.0719
2.4149e+04,-74.5656
2.4155e+04,-78.0594
2.4160e+04,-78.0594
2.4165e+04,-78.0594
2.4170e+04,-74.5656
2.4176e+04,-71.0719
2.4181e+04,-74.5656
2.4186e+04,-78.0594
2.4191e+04,-76.5563
2.4196e+04,-75.05
2.4202e+04,-76.5563
2.4207e+04,-78.0594
2.4212e+04,-78.0594
2.4217e+04,-78.0594
2.4222e+04,-76.5563
2.4228e+04,-75.05
2.4233e+04,-76.5563
2.4238e+04,-78.0594
2.4243e+04,-78.0594
2.4248e+04,-78.0594
2.4254e+04,-76.5563
2.4259e+04,-75.05
2.4264e+04,-73.0625
2.4269e+04,-71.0719
2.4274e+04,-74.5656
2.4280e+04,-78.0594
2.4285e+04,-74.5656
2.4290e+04,-71.0719
2.4295e+04,-74.5656
2.4301e+04,-78.0594
2.4306e+04,-78.0594
2.4311e+04,-78.0594
2.4316e+04,-78.0594
2.4321e+04,-78.0594
2.4327e+04,-78.0594
2.4332e+04,-78.0594
2.4337e+04,-76.5563
2.4342e+04,-75.05
2.4347e+04,-75.05
2.4353e+04,-75.05
2.4358e+04,-76.5563
2.4363e+04,-78.0594
2.4368e+04,-76.5563
2.4373e+04,-75.05
2.4379e+04,-76.5563
2.4384e+04,-78.0594
2.4389e+04,-78.0594
2.4394e+04,-78.0594
2.4399e+04,-76.5563
2.4405e+04,-75.05
2.4410e+04,-76.5563
2.4415e+04,-78.0594
2.4420e+04,-78.0594
2.4426e+04,-78.0594
2.4431e+04,-78.0594
2.4436e+04,-78.0594
2.4441e+04,-76.5563
2.4446e+04,-75.05
2.4452e+04,-75.05
2.4457e+04,-75.05
2.4462e+04,-73.0625
2.4467e+04,-71.0719
2.4472e+04,-74.5656
2.4478e+04,-78.0594
2.4483e+04,-76.5563
2.4488e+04,-75.05
2.4493e+04,-75.05
2.4498e+04,-75.05
2.4504e+04,-76.5563
2.4509e+04,-78.0594
2.4514e+04,-78.0594
2.4519e+04,-78.0594
2.4524e+04,-78.0594
2.4530e+04,-78.0594
2.4535e+04,-76.5563
2.4540e+04,-75.05
2.4545e+04,-75.05
2.4551e+04,-75.05
2.4556e+04,-73.5469
2.4561e+04,-72.0406
2.4566e+04,-73.5469
2.4571e+04,-75.05
2.4577e+04,-75.05
2.4582e+04,-75.05
2.4587e+04,-73.0625
2.4592e+04,-71.0719
2.4597e+04,-74.5656
2.4603e+04,-78.0594
2.4608e+04,-78.0594
2.4613e+04,-78.0594
2.4618e+04,-76.5563
2.4623e+04,-75.05
2.4629e+04,-76.5563
2.4634e+04,-78.0594
2.4639e+04,-75.05
2.4644e+04,-72.0406
2.4649e+04,-75.05
2.4655e+04,-78.0594
2.4660e+04,-75.05
2.4665e+04,-72.0406
2.4670e+04,-75.05
2.4676e+04,-78.0594
2.4681e+04,-74.5656
2.4686e+04,-71.0719
2.4691e+04,-74.5656
2.4696e+04,-78.0594
2.4702e+04,-75.05
2.4707e+04,-72.0406
2.4712e+04,-73.5469
2.4717e+04,-75.05
2.4722e+04,-76.5563
2.4728e+04,-78.0594
2.4733e+04,-78.0594
2.4738e+04,-78.0594
2.4743e+04,-76.5563
2.4748e+04,-75.05
2.4754e+04,-75.05
2.4759e+04,-75.05
2.4764e+04,-75.05
2.4769e+04,-75.05
2.4774e+04,-75.05
2.4780e+04,-75.05
2.4785e+04,-75.05
2.4790e+04,-75.05
2.4795e+04,-76.5563
2.4800e+04,-78.0594
2.4806e+04,-74.5656
2.4811e+04,-71.0719
2.4816e+04,-74.5656
2.4821e+04,-78.0594
2.4827e+04,-78.0594
2.4832e+04,-78.0594
2.4837e+04,-76.5563
2.4842e+04,-75.05
2.4847e+04,-75.05
2.4853e+04,-75.05
2.4858e+04,-76.5563
2.4863e+04,-78.0594
2.4868e+04,-78.0594
2.4873e+04,-78.0594
2.4879e+04,-78.0594
2.4884e+04,-78.0594
2.4889e+04,-75.05
2.4894e+04,-72.0406
2.4899e+04,-75.05
2.4905e+04,-78.0594
2.4910e+04,-78.0594
2.4915e+04,-78.0594
2.4920e+04,-78.0594
2.4925e+04,-78.0594
2.4931e+04,-78.0594
2.4936e+04,-78.0594
2.4941e+04,-78.0594
2.4946e+04,-78.0594
2.4952e+04,-76.5563
2.4957e+04,-75.05
2.4962e+04,-76.5563
2.4967e+04,-78.0594
2.4972e+04,-78.0594
2.4978e+04,-78.0594
2.4983e+04,-78.0594
2.4988e+04,-78.0594
2.4993e+04,-78.0594
2.4998e+04,-78.0594
2.5004e+04,-78.0594
2.5009e+04,-78.0594
2.5014e+04,-76.5563
2.5019e+04,-75.05
2.5024e+04,-76.5563
2.5030e+04,-78.0594
2.5035e+04,-78.0594
2.5040e+04,-78.0594
2.5045e+04,-78.0594
2.5050e+04,-78.0594
2.5056e+04,-78.0594
2.5061e+04,-78.0594
2.5066e+04,-78.0594
2.5071e+04,-78.0594
2.5077e+04,-78.0594
2.5082e+04,-78.0594
2.5087e+04,-78.0594
2.5092e+04,-78.0594
2.5097e+04,-76.5563
2.5103e+04,-75.05
2.5108e+04,-76.5563
2.5113e+04,-78.0594
2.5118e+04,-78.0594
2.5123e+04,-78.0594
2.5129e+04,-78.0594
2.5134e+04,-78.0594
2.5139e+04,-74.5656
2.5144e+04,-71.0719
2.5149e+04,-74.5656
2.5155e+04,-78.0594
2.5160e+04,-78.0594
2.5165e+04,-78.0594
2.5170e+04,-74.5656
2.5175e+04,-71.0719
2.5181e+04,-74.5656
2.5186e+04,-78.0594
2.5191e+04,-78.0594
2.5196e+04,-78.0594
2.5202e+04,-78.0594
2.5207e+04,-78.0594
2.5212e+04,-78.0594
2.5217e+04,-78.0594
2.5222e+04,-75.05
2.5228e+04,-72.0406
2.5233e+04,-75.05
2.5238e+04,-78.0594
2.5243e+04,-76.5563
2.5248e+04,-75.05
2.5254e+04,-76.5563
2.5259e+04,-78.0594
2.5264e+04,-76.5563
2.5269e+04,-75.05
2.5274e+04,-75.05
2.5280e+04,-75.05
2.5285e+04,-76.5563
2.5290e+04,-78.0594
2.5295e+04,-78.0594
2.5300e+04,-78.0594
2.5306e+04,-78.0594
2.5311e+04,-78.0594
2.5316e+04,-78.0594
2.5321e+04,-78.0594
2.5327e+04,-78.0594
2.5332e+04,-78.0594
2.5337e+04,-78.0594
2.5342e+04,-78.0594
2.5347e+04,-74.5656
2.5353e+04,-71.0719
2.5358e+04,-74.5656
2.5363e+04,-78.0594
2.5368e+04,-76.5563
2.5373e+04,-75.05
2.5379e+04,-76.5563
2.5384e+04,-78.0594
2.5389e+04,-76.5563
2.5394e+04,-75.05
2.5399e+04,-76.5563
2.5405e+04,-78.0594
2.5410e+04,-78.0594
2.5415e+04,-78.0594
2.5420e+04,-78.0594
2.5425e+04,-78.0594
2.5431e+04,-74.5656
2.5436e+04,-71.0719
2.5441e+04,-74.5656
2.5446e+04,-78.0594
2.5451e+04,-76.5563
2.5457e+04,-75.05
2.5462e+04,-76.5563
2.5467e+04,-78.0594
2.5472e+04,-78.0594
2.5478e+04,-78.0594
2.5483e+04,-76.5563
2.5488e+04,-75.05
2.5493e+04,-75.05
2.5498e+04,-75.05
2.5504e+04,-75.05
2.5509e+04,-75.05
2.5514e+04,-76.5563
2.5519e+04,-78.0594
2.5524e+04,-78.0594
2.5530e+04,-78.0594
2.5535e+04,-76.5563
2.5540e+04,-75.05
2.5545e+04,-76.5563
2.5550e+04,-78.0594
2.5556e+04,-78.0594
2.5561e+04,-78.0594
2.5566e+04,-76.5563
2.5571e+04,-75.05
2.5576e+04,-75.05
2.5582e+04,-75.05
2.5587e+04,-76.5563
2.5592e+04,-78.0594
2.5597e+04,-78.0594
2.5603e+04,-78.0594
2.5608e+04,-76.5563
2.5613e+04,-75.05
2.5618e+04,-76.5563
2.5623e+04,-78.0594
2.5629e+04,-76.5563
2.5634e+04,-75.05
2.5639e+04,-76.5563
2.5644e+04,-78.0594
2.5649e+04,-74.5656
2.5655e+04,-71.0719
2.5660e+04,-74.5656
2.5665e+04,-78.0594
2.5670e+04,-78.0594
2.5675e+04,-78.0594
2.5681e+04,-74.5656
2.5686e+04,-71.0719
2.5691e+04,-73.0625
2.5696e+04,-75.05
2.5701e+04,-76.5563
2.5707e+04,-78.0594
2.5712e+04,-74.5656
2.5717e+04,-71.0719
2.5722e+04,-73.0625
2.5728e+04,-75.05
2.5733e+04,-75.05
2.5738e+04,-75.05
2.5743e+04,-75.05
2.5748e+04,-75.05
2.5754e+04,-73.5469
2.5759e+04,-72.0406
2.5764e+04,-75.05
2.5769e+04,-78.0594
2.5774e+04,-76.5563
2.5780e+04,-75.05
2.5785e+04,-76.5563
2.5790e+04,-78.0594
2.5795e+04,-78.0594
2.5800e+04,-78.0594
2.5806e+04,-78.0594
2.5811e+04,-78.0594
2.5816e+04,-78.0594
2.5821e+04,-78.0594
2.5826e+04,-78.0594
2.5832e+04,-78.0594
2.5837e+04,-78.0594
2.5842e+04,-78.0594
2.5847e+04,-76.5563
2.5853e+04,-75.05
2.5858e+04,-76.5563
2.5863e+04,-78.0594
2.5868e+04,-78.0594
2.5873e+04,-78.0594
2.5879e+04,-74.5656
2.5884e+04,-71.0719
2.5889e+04,-74.5656
2.5894e+04,-78.0594
2.5899e+04,-78.0594
2.5905e+04,-78.0594
2.5910e+04,-73.0594
2.5915e+04,-68.0594
2.5920e+04,-71.5563
2.5925e+04,-75.05
2.5931e+04,-76.5563
2.5936e+04,-78.0594
2.5941e+04,-78.0594
2.5946e+04,-78.0594
2.5951e+04,-78.0594
2.5957e+04,-78.0594
2.5962e+04,-74.5656
2.5967e+04,-71.0719
2.5972e+04,-74.5656
2.5978e+04,-78.0594
2.5983e+04,-73.5469
2.5988e+04,-69.0312
2.5993e+04,-73.5469
2.5998e+04,-78.0594
2.6004e+04,-76.5563
2.6009e+04,-75.05
2.6014e+04,-76.5563
2.6019e+04,-78.0594
2.6024e+04,-76.5563
2.6030e+04,-75.05
2.6035e+04,-75.05

